walk15
StartTime: 2017-07-12 12:08:11.416
Time(s)	ax(g)	ay(g)	az(g)	wx(deg/s)	wy(deg/s)	wz(deg/s)	AngleX(deg)	AngleY(deg)	AngleZ(deg)	T(°)	hx	hy	hz	Pressure(Pa)	Altitude(m) 
1237.330	-1.6636	-0.0371	1.6235	0.0000	0.7935	-0.9155	0.1263	46.1920	120.9814	40.1800	132	-207	352	100949	0.31 
1237.502	-1.6733	-0.0117	1.6221	2.6855	-1.9531	-2.0752	0.0000	46.2634	120.5914	40.1600	131	-206	353	100948	0.31 
1237.548	-1.7148	-0.0430	1.6401	4.7607	-6.3477	-4.2725	-0.0055	45.9723	120.0421	40.1700	131	-206	352	100948	0.31 
1237.689	-1.6914	-0.0015	1.6216	3.2349	-9.3994	-4.2725	-0.3735	44.7583	119.1852	40.1800	136	-203	355	100948	0.31 
1237.767	-1.5962	-0.0166	1.5864	2.3804	-1.8921	-4.4556	-0.4340	43.7091	118.8391	40.1500	133	-200	346	100948	0.31 
1237.908	-1.6519	-0.0620	1.6289	6.8359	1.2207	-7.5073	-0.4614	44.0332	118.1854	40.1600	137	-196	349	100949	0.31 
1237.986	-1.6416	-0.0254	1.6401	7.7515	3.4790	-10.4980	-0.6427	44.4012	116.8890	40.1800	137	-196	348	100948	0.31 
1238.081	-1.6436	0.0161	1.6416	0.6714	-0.4272	-2.1973	-0.8240	44.6759	116.1255	40.2000	138	-197	353	100949	0.31 
1238.206	-1.6528	0.0127	1.6460	-9.0942	0.8545	14.3433	-0.4889	44.6649	117.3120	40.1700	137	-197	353	100949	0.31 
1238.316	-1.6567	-0.0283	1.6440	-12.6343	-1.0376	21.4844	0.1978	44.5825	119.9652	40.1900	134	-198	355	100948	0.31 
1238.378	-1.6436	-0.0552	1.6436	-6.7139	-1.7090	7.0190	0.4889	44.2969	121.9373	40.2000	132	-201	346	100948	0.31 
1238.519	-1.6572	-0.0352	1.6431	-0.0610	2.5024	3.3569	0.5878	44.3134	122.4097	40.2100	131	-201	347	100948	0.31 
1238.613	-1.6357	-0.0171	1.6445	1.5869	-1.4648	-5.7983	0.4614	44.2969	122.0471	40.2000	129	-203	348	100948	0.31 
1238.722	-1.6509	-0.0444	1.6553	5.3101	1.2207	-5.0659	0.2417	44.4397	121.2506	40.2200	129	-202	350	100948	0.31 
1238.894	-1.6455	-0.0503	1.6489	6.4087	-2.1362	-8.6670	0.0769	44.4836	120.2014	40.2200	132	-197	347	100948	0.31 
1238.956	-1.6270	0.0049	1.6440	4.8218	-1.6479	-8.4839	-0.2966	44.2859	118.8556	40.2300	135	-196	349	100948	0.31 
1239.035	-1.6221	0.0259	1.6416	-1.7090	3.4180	2.8687	-0.4010	44.3903	118.4766	40.2300	137	-196	352	100948	0.31 
1239.144	-1.6392	-0.0605	1.6357	-1.7090	-0.4272	5.6152	-0.1318	44.5880	119.2841	40.2400	133	-198	349	100949	0.31 
1239.331	-1.6167	-0.0420	1.6411	1.5869	0.6714	-2.8076	-0.2527	44.5990	119.2236	40.2300	134	-199	351	100949	0.31 
1239.394	-1.6514	0.0298	1.6284	0.3052	6.7749	2.8687	-0.2637	45.0000	119.1357	40.2200	136	-199	352	100948	0.31 
1239.566	-1.6499	0.0161	1.6255	5.8594	7.9956	4.8218	0.3900	45.8295	119.6631	40.2500	134	-201	356	100949	0.31 
1239.629	-1.6235	-0.0298	1.7368	-3.6621	-1.7700	-5.1880	0.7141	46.3513	119.9982	40.2500	136	-200	357	100949	0.31 
1239.676	-1.5996	0.0317	1.5938	-5.7373	-18.8599	-2.5024	-0.1648	44.7144	119.1028	40.2500	141	-200	356	100949	0.31 
1239.785	-1.5679	-0.1758	1.6182	2.9297	-2.9297	-23.0103	-1.9061	44.2584	117.3889	40.2600	139	-197	349	100950	0.31 
1239.894	-1.5801	0.0181	1.7275	-9.2163	-18.9819	-19.3481	-3.7573	43.9233	114.4501	40.2700	141	-189	354	100950	0.31 
1240.019	-1.5142	-0.1733	1.7148	-13.8550	15.3198	-14.2822	-6.7676	43.6212	112.0935	40.2700	143	-182	349	100949	0.31 
1240.097	-1.3818	-0.0991	1.6216	-2.3193	-9.3994	-1.0376	-7.8937	42.9291	111.3519	40.2600	146	-178	349	100950	0.31 
1240.222	-1.4326	-0.0659	1.7446	-10.2539	14.4653	24.4751	-7.1411	43.8739	112.9669	40.2800	146	-178	347	100950	0.31 
1240.347	-1.7959	-0.2671	2.0117	-27.8320	9.0942	20.7520	-6.6577	45.3625	116.1749	40.2700	143	-181	349	100951	0.31 
1240.426	-1.6460	-0.1294	1.4868	20.3857	-28.9307	-29.4189	-10.2942	43.3356	113.3130	40.2700	144	-184	347	100951	0.31 
1240.550	-1.8027	-0.1411	1.6523	33.1421	55.2368	38.0859	-3.6090	45.8679	117.0813	40.2400	142	-184	348	100951	0.31 
1240.660	-1.5728	0.0366	1.5303	39.0625	-3.3569	24.0479	2.5214	45.8514	120.1025	40.2400	141	-192	360	100951	0.31 
1240.772	-1.4878	0.0269	1.4814	20.3857	-5.7983	1.4648	6.6687	45.1703	121.8109	40.2200	139	-196	364	100950	0.31 
1240.850	-1.4160	0.0840	1.6338	-6.5308	7.4463	-23.5596	5.6635	45.2966	120.1575	40.2300	142	-196	366	100950	0.31 
1240.991	-1.8076	0.2178	2.2725	19.5923	9.7656	5.2490	4.1693	46.5326	117.9877	40.2300	146	-190	368	100950	0.31 
1241.085	-1.8501	-0.0586	1.5537	18.1274	-17.8833	25.2075	9.3549	44.6100	121.4264	40.2200	146	-192	372	100950	0.31 
1241.210	-1.7227	0.5181	1.7910	-38.5132	47.3633	-43.9453	3.4991	45.4065	115.5487	40.2100	147	-190	367	100950	0.31 
1241.289	-1.3662	-0.2783	1.3862	-40.2222	-19.8975	-4.9438	-0.9723	43.1873	115.1642	40.2000	154	-184	363	100950	0.31 
1241.413	-1.2529	-0.0850	1.4561	-3.4790	4.1504	11.3525	-4.3231	43.0005	113.6646	40.1900	156	-180	356	100950	0.31 
1241.523	-1.7144	-0.0054	1.8804	-9.9487	0.4883	47.7905	-1.0822	44.2419	118.8336	40.2200	154	-182	358	100950	0.31 
1241.601	-1.9268	-0.2739	1.7065	-26.9775	-34.6069	-62.8662	-6.1249	43.1323	115.6915	40.2100	150	-186	355	100950	0.31 
1241.726	-1.6528	-0.3013	1.5376	11.8408	47.1802	72.9980	-2.5763	44.3079	120.9210	40.2200	152	-183	348	100950	0.31 
1241.851	-1.4780	0.1543	1.4448	62.5610	-8.6670	-18.9819	2.0709	44.5660	120.8606	40.2000	153	-195	355	100950	0.31 
1241.945	-1.5317	0.0747	1.5977	12.3901	7.2632	-12.7563	4.9548	45.8130	119.8059	40.2000	155	-193	367	100949	0.31 
1242.070	-1.7900	0.0864	1.8159	11.9629	-14.1602	-56.8237	1.5656	46.1481	114.4116	40.2200	161	-187	372	100949	0.31 
1242.195	-1.9868	0.0757	1.9009	27.8320	-21.4233	32.2266	2.4335	45.4999	113.0273	40.2200	167	-178	374	100949	0.31 
1242.288	-1.6079	-0.5298	1.2915	-21.3623	-13.0615	-44.4946	6.1029	44.5331	115.9717	40.2100	168	-182	376	100949	0.31 
1242.398	-1.7461	0.1504	1.6382	-72.1436	-30.5786	36.7432	-0.3735	44.8627	114.3732	40.1800	171	-177	369	100949	0.31 
1242.476	-1.4365	-0.0581	1.5552	-34.7290	13.7329	17.7002	-4.0814	42.8632	117.7515	40.1800	163	-179	349	100949	0.31 
1242.648	-1.4692	-0.0483	1.8354	-16.6626	15.2588	71.5332	-1.9061	43.7091	122.9535	40.1800	158	-188	349	100949	0.31 
1242.742	-2.2061	-0.3994	2.4185	-25.8179	25.0244	-38.7573	0.0330	45.1978	127.7930	40.1900	151	-203	348	100948	0.31 
1242.804	-1.9829	0.7588	0.9023	22.0337	-23.3154	78.5522	-5.0702	41.9293	120.5035	40.1900	158	-191	340	100948	0.31 
1242.898	-1.8022	-0.3853	1.7886	47.6685	-26.2451	5.8594	2.0984	46.1041	126.2054	40.1900	159	-201	349	100948	0.31 
1243.038	-1.4941	0.1978	1.5859	33.2642	9.3994	-10.6201	5.8777	45.2692	124.2719	40.1900	162	-201	355	100948	0.31 
1243.133	-1.2817	-0.0576	1.6748	5.0659	4.2725	-26.0620	5.3778	45.2252	122.3767	40.1800	162	-202	358	100948	0.31 
1243.242	-2.1431	0.3433	2.2822	27.5269	14.5874	5.7983	3.0432	45.9064	116.8890	40.1900	170	-189	364	100948	0.31 
1243.351	-1.7207	-0.6563	1.2358	21.7896	-50.1099	-15.7471	10.3601	42.7423	122.4976	40.1900	171	-196	368	100948	0.31 
1243.460	-1.7720	0.5830	1.7188	-57.8613	-13.7939	-3.2349	3.3289	44.3683	116.0321	40.1900	172	-189	365	100948	0.31 
1243.585	-1.3062	-0.3203	1.3750	-42.6636	11.5967	6.9580	-1.5271	42.1436	117.8668	40.2000	171	-187	350	100948	0.31 
1243.664	-1.3306	0.0933	1.7388	-11.6577	35.1563	45.5933	-1.8237	43.9893	119.5313	40.1900	171	-189	350	100948	0.31 
1243.773	-1.7544	-0.5376	2.1807	-28.0762	19.0430	5.2490	1.0712	45.2472	126.2329	40.2000	161	-204	354	100948	0.31 
1243.883	-1.9336	0.1802	1.3560	20.8130	-43.4570	-4.8828	-6.6852	44.2145	117.2900	40.1900	166	-194	349	100948	0.31 
1243.976	-1.5015	-0.6646	1.8647	26.3062	41.7480	17.3340	0.1923	46.1481	123.7006	40.1800	169	-196	349	100948	0.31 
1244.086	-1.5068	0.2695	1.4917	50.1099	6.1035	-16.0522	3.4113	45.8405	121.4099	40.1900	170	-200	358	100948	0.31 
1244.257	-1.3877	0.0361	1.5762	2.9907	-1.0376	-11.3525	5.0372	46.3733	120.5585	40.1900	173	-199	371	100948	0.31 
1244.320	-1.6782	0.0942	1.7861	16.3574	0.7935	-43.1519	1.7413	45.9833	114.9500	40.1900	177	-192	369	100948	0.31 
1244.443	-2.1084	0.6504	1.7446	46.9360	-23.7427	84.7168	7.4213	45.2362	118.2239	40.2000	184	-188	376	100948	0.31 
1244.522	-1.5356	-0.1206	1.2485	-25.9399	57.4341	-59.5093	6.6577	43.2587	116.8726	40.1800	176	-194	369	100947	0.31 
1244.693	-1.3892	-0.1646	1.4390	-67.3828	-43.4570	21.8506	1.2854	44.2584	116.7133	40.1900	183	-188	372	100948	0.31 
1244.771	-1.3896	-0.0635	1.6333	-12.0239	7.2632	9.0942	-3.0212	44.1046	117.0099	40.1800	179	-187	360	100948	0.31 
1244.896	-1.7422	0.0801	1.6836	-17.4561	10.8032	60.2417	0.4944	44.7583	122.9700	40.1800	174	-199	363	100948	0.31 
1244.974	-2.0137	-0.5122	1.9600	-30.5786	2.2583	-107.1777	-4.4879	45.6921	119.7894	40.1800	172	-210	365	100948	0.31 
1245.068	-1.5771	0.3813	1.1763	20.0195	38.3301	73.5474	-4.1473	44.5221	118.3447	40.1700	177	-193	361	100948	0.31 
1245.163	-1.5103	-0.1318	1.5400	39.9780	-13.8550	-3.7231	1.0767	46.6809	121.6681	40.1700	179	-206	370	100948	0.31 
1245.303	-1.5024	0.0781	1.5713	22.6440	16.6016	-14.5264	3.6255	46.8457	120.1520	40.1800	179	-211	374	100948	0.31 
1245.397	-1.5645	-0.1396	1.8188	13.3667	-6.6528	-60.3638	1.3184	47.3950	115.5103	40.1800	184	-203	384	100948	0.31 
1245.503	-2.1094	0.2407	2.2524	31.4941	11.7798	20.6299	-0.1593	46.5875	110.1105	40.1900	195	-186	388	100948	0.31 
1245.591	-1.8120	-0.4106	1.2114	-3.2349	-62.5610	-0.1221	7.4817	44.4177	117.5153	40.1800	194	-196	386	100948	0.31 
1245.732	-1.7515	0.5288	2.1279	-56.0913	24.2920	14.1602	1.2360	45.7965	113.7799	40.1900	196	-193	377	100948	0.31 
1245.826	-1.4932	-0.3096	1.4155	-64.0869	1.5869	16.4185	-2.5378	43.3850	117.8339	40.1900	190	-202	369	100948	0.31 
1245.935	-1.4331	-0.0122	1.5244	-13.6719	18.9209	42.6025	-3.8892	44.8792	120.4980	40.1700	183	-209	360	100948	0.31 
1246.091	-1.6157	-0.1899	1.7378	-10.5591	6.8970	45.4102	0.7361	46.0217	128.3752	40.1900	173	-229	363	100948	0.31 
1246.138	-1.8940	-0.4390	1.9766	-27.6489	-8.7891	-70.4956	-2.9114	46.2579	125.7825	40.1900	160	-238	364	100948	0.31 
1246.310	-1.7266	0.3701	1.0830	30.7617	42.4194	52.5513	-3.6145	44.9835	122.0416	40.1800	168	-231	355	100948	0.31 
1246.388	-1.6304	-0.0586	1.5605	56.9458	-36.3159	-15.4419	1.7468	47.9224	123.4918	40.1800	167	-239	372	100948	0.31 
1246.497	-1.5693	0.1597	1.5591	22.7661	12.8174	1.0986	5.6909	47.6093	122.9425	40.1800	167	-241	386	100948	0.31 
1246.560	-1.4072	-0.0220	1.6709	-1.8921	-10.3149	-35.5225	4.4055	46.9720	120.9100	40.2000	166	-238	391	100948	0.31 
1246.716	-1.6821	0.1899	2.2139	24.2310	11.1694	-11.5967	1.5656	46.7578	115.8508	40.2000	169	-232	387	100948	0.31 
1246.794	-2.0732	0.3682	1.6504	31.1279	-21.9116	56.8237	7.4487	45.1648	118.9545	40.2100	170	-234	389	100948	0.31 
1246.873	-1.6187	0.3789	1.6729	-28.9307	35.5835	-48.7671	4.0594	44.5331	114.8621	40.1900	164	-233	380	100947	0.31 
1246.982	-1.3545	-0.2402	1.3535	-66.7114	-25.8789	13.7939	-0.7855	43.4674	115.8179	40.2000	162	-228	369	100947	0.31 
1247.154	-1.4155	-0.0674	1.7012	-16.2964	-6.9580	18.6768	-4.3561	44.2255	117.1472	40.2000	148	-227	354	100947	0.31 
1247.216	-1.6631	-0.1855	1.7148	-15.7471	2.0752	39.9170	-1.2085	44.2365	123.5303	40.2100	136	-231	345	100946	0.32 
1247.357	-1.9624	-0.5039	2.0000	-31.7383	-24.2920	-94.7266	-7.5146	43.9014	118.4052	40.2100	129	-227	342	100947	0.31 
1247.435	-1.5562	0.2827	1.1509	12.3291	60.1807	77.0264	-5.7568	43.2916	119.4159	40.2200	129	-211	329	100947	0.32 
1247.544	-1.5015	-0.0493	1.5156	41.1987	-22.0947	5.3711	-0.8295	46.1261	122.8436	40.2000	119	-221	335	100947	0.31 
1247.654	-1.4810	0.0171	1.6846	14.8315	5.6152	2.9297	2.9279	45.9229	123.9093	40.2000	119	-219	340	100947	0.31 
1247.794	-1.4067	-0.0879	1.7017	11.7188	-0.0610	-48.4009	1.8073	44.9451	121.3824	40.2100	120	-216	342	100947	0.31 
1247.857	-2.2778	0.3350	2.3027	37.4756	-6.1035	38.2690	1.5106	46.0657	117.6361	40.2100	128	-200	348	100947	0.31 
1247.982	-1.7578	-0.4717	1.2852	3.6011	-46.9360	-2.8687	9.0527	43.6212	124.6619	40.2100	125	-205	350	100947	0.31 
1248.091	-1.7661	0.4248	1.7339	-49.9878	13.2446	16.4185	2.4719	44.8297	119.5587	40.1900	128	-197	346	100947	0.31 
1248.170	-1.4546	-0.2295	1.4668	-58.2275	2.8687	16.6016	-0.9888	43.4235	122.8766	40.1900	125	-200	337	100947	0.31 
1248.341	-1.4072	0.0054	1.5137	-28.6865	2.1362	50.2319	-2.5818	43.8464	125.9363	40.1800	126	-193	331	100947	0.31 
1248.435	-1.5625	-0.1543	1.6948	-32.6538	13.9160	81.0547	1.3843	45.3461	135.4889	40.1900	115	-204	327	100947	0.31 
1248.498	-2.2124	-0.3306	1.9648	-50.9644	12.3291	17.2119	2.7960	45.7526	142.2894	40.2000	103	-220	321	100947	0.31 
1248.623	-1.8071	0.5742	1.3364	-25.4517	8.1177	60.0586	-0.9393	46.6699	142.0477	40.1800	102	-217	317	100947	0.32 
1248.717	-1.6084	-0.1675	1.4092	39.1235	-11.7798	14.1602	8.1244	46.6260	151.3092	40.1700	89	-226	315	100946	0.32 
1248.826	-1.7744	0.2310	1.4854	-0.7935	-7.1411	0.1221	9.3384	46.7084	149.5734	40.1700	89	-232	320	100947	0.31 
1248.935	-1.6377	0.0205	1.4590	-2.1362	-7.9956	-5.3101	9.4812	46.4941	149.4415	40.1700	86	-235	321	100947	0.31 
1249.045	-1.5146	0.1011	1.8174	-7.0801	-25.0244	-38.0859	5.7953	45.8844	144.4263	40.1700	89	-235	319	100947	0.32 
1249.170	-1.8442	0.0234	2.4795	-4.0283	61.7676	67.8711	1.1591	45.6482	139.2078	40.1700	101	-222	314	100946	0.32 
1249.248	-1.4805	-0.0791	1.1401	-25.7568	47.4243	-20.4468	3.9221	44.7913	144.5032	40.1900	88	-229	310	100946	0.32 
1249.373	-1.6509	0.0024	1.5234	10.0098	-25.4517	26.0620	4.1144	47.0325	145.0580	40.1900	92	-229	310	100946	0.32 
1249.482