StartTime: 2017-07-14 14:47:44.458
Time(s)	ax(g)	ay(g)	az(g)	wx(deg/s)	wy(deg/s)	wz(deg/s)	AngleX(deg)	AngleY(deg)	AngleZ(deg)	T(°)	hx	hy	hz	Pressure(Pa)	Altitude(m) 
434.538	-0.3613	-0.0049	0.9565	0.1831	-0.1831	0.9155	-0.5878	20.4785	173.3752	44.5600	61	-173	-98	100553	0.64 
434.617	-0.3618	-0.0103	0.9590	-0.2441	-1.3428	1.1597	-0.5273	20.4291	173.4686	44.5600	63	-170	-96	100553	0.64 
434.726	-0.3608	-0.0029	0.9692	0.3052	-0.9766	0.2441	-0.4944	20.4346	173.4631	44.5700	63	-170	-99	100553	0.64 
434.835	-0.3721	-0.0044	0.9653	-0.1221	-0.1831	2.6855	-0.4175	20.4401	173.5126	44.5700	63	-169	-98	100553	0.64 
434.929	-0.3608	-0.0107	0.9595	-0.1831	-0.3052	1.7700	-0.3845	20.4346	173.6719	44.5800	60	-166	-102	100553	0.64 
435.040	-0.3516	-0.0083	0.9727	-0.5493	0.0610	5.7983	-0.2307	20.5609	174.1663	44.5700	60	-171	-100	100553	0.64 
435.134	-0.4263	0.0488	0.9712	3.3569	8.1787	4.4556	0.1263	21.1981	174.6497	44.5700	60	-171	-96	100553	0.64 
435.243	-0.3179	0.0757	0.8813	-3.2349	12.1460	-10.0098	-0.1483	21.8353	173.9301	44.5700	64	-168	-99	100553	0.64 
435.321	-0.3267	0.0601	0.9824	-10.0098	1.2207	-16.4185	-0.9229	22.3737	173.0786	44.5800	65	-170	-98	100553	0.64 
435.446	-0.4023	0.0454	0.9097	-8.4229	7.5073	-24.9634	-2.4609	22.7252	170.7715	44.5700	70	-167	-98	100554	0.64 
435.556	-0.3809	0.1328	0.9473	-17.8833	2.6245	-14.0381	-3.8672	23.1921	168.7830	44.5800	77	-162	-100	100553	0.64 
435.649	-0.3594	-0.0781	0.8662	-26.1230	8.1787	-22.5220	-6.5753	23.1427	167.0636	44.5700	83	-158	-106	100554	0.64 
435.743	-0.3936	-0.0918	0.9214	-33.8135	-4.6387	-46.0205	-10.8435	23.0054	163.2129	44.5800	90	-151	-114	100553	0.64 
435.915	-0.3350	-0.1318	0.8345	-45.7764	-4.2114	-68.0542	-16.5015	20.8630	157.6758	44.5800	102	-136	-122	100553	0.64 
435.962	-0.3369	-0.0806	0.7202	-53.4058	1.2207	-81.2988	-23.2141	18.3252	150.5072	44.5700	110	-115	-135	100553	0.64 
436.087	-0.1157	-0.0396	0.3154	-48.3398	-5.6152	-85.1440	-29.1907	15.2710	143.5144	44.5300	120	-88	-144	100553	0.64 
436.165	-0.2485	-0.3994	0.4712	-71.6553	-9.1553	-83.8013	-36.0791	11.3544	136.9061	44.5000	128	-61	-153	100552	0.64 
436.259	0.2900	-0.4639	0.2168	-154.2358	-64.7583	-45.4712	-46.8787	6.3885	135.5273	44.4700	124	-29	-158	100552	0.64 
436.384	0.8159	-5.6641	2.5391	-56.7017	108.4595	-154.2969	-63.0505	-6.0425	131.9183	44.4000	99	17	-173	100553	0.64 
436.493	0.4165	-0.2983	0.4204	-9.9487	-55.7251	-141.1743	-73.9819	-19.8798	137.5708	44.3500	64	63	-170	100553	0.64 
436.572	0.3433	-0.2056	-0.2061	4.6997	-24.9023	-67.9932	-77.8601	-31.2012	144.1296	44.3000	22	83	-166	100551	0.65 
436.728	0.7144	-0.4980	0.0962	-10.2539	-13.9160	4.8828	-78.6566	-36.5570	144.3494	44.2700	2	85	-161	100553	0.64 
436.806	0.8379	-1.0986	0.0737	5.9814	21.3623	29.6631	-80.0079	-35.6946	145.6128	44.2600	-1	89	-164	100554	0.64 
436.915	0.6099	-0.9453	0.1548	17.2119	10.9253	40.8325	-77.7997	-32.0801	144.6130	44.2400	4	82	-166	100555	0.64 
437.009	0.4780	-0.6670	0.2144	29.9683	32.7148	21.5454	-75.5420	-28.0096	144.3219	44.2200	20	79	-169	100556	0.64 
437.134	0.3901	-0.7979	0.3081	28.4424	33.8745	20.9961	-72.0483	-24.5709	143.2397	44.2200	29	72	-173	100557	0.64 
437.213	0.3228	-0.9077	0.4004	-3.7842	5.0659	23.4375	-70.2081	-20.8466	142.6740	44.1900	46	63	-176	100558	0.64 
437.337	0.2334	-0.9888	0.2236	-15.0146	-5.2490	12.8174	-71.5594	-17.9736	143.8550	44.2000	55	58	-176	100558	0.64 
437.478	0.2842	-0.9463	0.2461	-9.3384	-3.9673	-3.2349	-72.7679	-17.6660	144.2505	44.2000	58	63	-175	100558	0.64 
437.540	0.2939	-0.9082	0.2524	-6.5918	-4.8828	-10.3760	-73.8007	-18.2263	144.7614	44.1900	57	66	-171	100559	0.64 
437.681	0.3462	-0.9053	0.2202	-3.0518	-6.6528	-7.8735	-74.5477	-19.3359	145.4260	44.1900	54	67	-176	100560	0.64 
437.759	0.3423	-0.9224	0.2363	1.2207	3.7231	0.0000	-74.9048	-19.5227	145.7611	44.1800	52	70	-171	100560	0.64 
437.915	0.3198	-0.9233	0.2256	-1.3428	-6.1035	-1.5869	-75.0366	-18.9679	146.2885	44.2000	51	71	-171	100560	0.64 
437.978	0.3398	-0.9248	0.2813	-1.4648	2.1973	7.2632	-74.8883	-19.1656	146.4368	44.1900	50	65	-177	100560	0.64 
438.087	0.3516	-0.9150	0.2471	-5.3711	7.9346	15.9912	-75.2234	-18.2648	146.5027	44.2000	52	66	-176	100561	0.64 
438.181	0.2358	-0.9985	0.1704	-6.7749	-0.6104	34.2407	-76.2396	-15.4797	147.2223	44.2200	58	71	-170	100561	0.64 
438.290	0.2827	-1.0039	0.1685	1.4648	-1.8311	-1.9531	-76.7065	-14.7437	148.0408	44.2100	64	65	-171	100561	0.64 
438.384	0.2925	-0.9268	0.2246	4.5776	-0.6714	-5.0659	-76.2781	-14.9963	148.1396	44.2100	62	63	-169	100560	0.64 
438.493	0.3286	-0.9209	0.2280	5.9814	3.5400	-6.8359	-75.7178	-15.6830	147.9474	44.2300	62	66	-175	100560	0.64 
438.588	0.2764	-0.9111	0.2388	3.1128	2.5024	-1.0376	-75.0970	-15.7214	147.5354	44.2300	62	64	-172	100560	0.64 
438.712	0.2637	-0.9380	0.2471	3.3569	1.3428	1.5259	-74.6906	-15.6226	147.4255	44.2400	64	62	-169	100560	0.64 
438.822	0.2803	-0.9063	0.2788	1.4038	-0.9766	-3.0518	-74.3060	-15.8533	147.3431	44.2400	63	62	-173	100560	0.64 
438.915	0.2729	-0.9526	0.2612	0.3662	-1.3428	-3.2349	-74.2291	-16.3037	147.3981	44.2300	60	61	-173	100560	0.64 
438.994	0.2847	-0.9302	0.2427	3.4180	1.9531	0.7935	-74.0643	-16.2433	147.4585	44.2600	60	65	-170	100560	0.64 
439.134	0.3013	-0.9370	0.2822	2.3193	-0.0610	-2.2583	-73.5535	-16.5179	147.3157	44.2600	61	58	-169	100560	0.64 
439.213	0.3110	-0.9058	0.2783	0.3052	0.0000	-3.7842	-73.3557	-16.8091	147.2278	44.2600	64	61	-171	100560	0.64 
439.337	0.3242	-0.9082	0.2637	2.5635	1.2817	-5.0049	-73.1799	-17.3804	147.0685	44.2600	63	60	-171	100560	0.64 
439.447	0.3223	-0.9141	0.2842	2.5024	1.2817	-0.7324	-72.8503	-17.6166	146.9202	44.2700	61	61	-172	100559	0.64 
439.540	0.3193	-0.9097	0.2847	1.5259	-0.9155	-6.4697	-72.6361	-17.8857	146.8927	44.2800	60	54	-174	100560	0.64 
439.712	0.3452	-0.9004	0.2935	1.5259	-0.5493	-2.8687	-72.3999	-18.4186	146.8982	44.2800	59	57	-170	100560	0.64 
439.759	0.3359	-0.8955	0.3057	-0.3052	-0.5493	0.5493	-72.2131	-18.5504	146.8597	44.2700	57	59	-174	100560	0.64 
439.854	0.3335	-0.8848	0.2832	-0.7324	0.9155	3.4180	-72.2406	-18.5724	146.9861	44.2900	58	58	-172	100560	0.64 
439.962	0.3174	-0.9185	0.3047	1.1597	-0.3052	-2.3804	-72.2241	-18.4241	147.0795	44.2900	57	61	-174	100560	0.64 
440.056	0.3418	-0.8833	0.3027	0.0000	-2.6245	0.3052	-72.1472	-18.7701	147.2388	44.2800	56	61	-172	100560	0.64 
440.181	0.3052	-0.9131	0.3027	0.0610	-1.4648	0.3052	-72.2241	-18.5449	147.5629	44.2900	57	58	-175	100560	0.64 
440.260	0.3340	-0.8970	0.3198	-1.5869	-0.9155	0.1221	-72.2571	-18.6713	147.6563	44.2900	57	59	-178	100560	0.64 
440.384	0.3364	-0.9014	0.2954	-1.7700	-1.7700	0.2441	-72.5482	-18.6603	147.9584	44.3100	56	60	-174	100559	0.64 
440.462	0.3418	-0.9038	0.2871	0.0000	0.5493	0.4272	-72.7075	-18.8745	148.0627	44.2900	55	58	-174	100559	0.64 
440.603	0.3472	-0.8975	0.2842	-1.5869	0.7324	2.1362	-72.7570	-18.7866	148.0737	44.3100	58	59	-175	100560	0.64 
440.728	0.3330	-0.9082	0.2822	-2.6855	-3.2959	-0.7324	-72.9163	-18.6163	148.2330	44.3200	56	60	-177	100560	0.64 
440.791	0.3389	-0.9092	0.2871	2.1973	0.7935	-2.6245	-72.8888	-19.0228	148.2166	44.3300	57	59	-175	100560	0.64 
440.978	0.3354	-0.8979	0.3062	0.9766	0.0000	-1.5869	-72.5867	-19.1821	148.0518	44.3100	58	58	-176	100560	0.64 
441.009	0.3652	-0.8970	0.3003	1.4038	1.3428	-2.8687	-72.4164	-19.4897	147.9034	44.3100	57	60	-172	100561	0.64 
441.166