StartTime: 2017-08-15 14:07:20.448
3-5-4
Time(s)	ax(g)	ay(g)	az(g)	wx(deg/s)	wy(deg/s)	wz(deg/s)	AngleX(deg)	AngleY(deg)	AngleZ(deg)	T(°) 
604.285	0.4443	-0.0332	0.9326	-2.0752	-1.8311	-6.5918	-2.6093	-24.0106	87.2424	51.8100 
604.285	0.4453	-0.0220	0.9224	-2.3804	-2.5635	-5.0659	-2.5983	-24.0491	87.1436	51.8600 
604.301	0.4380	-0.0200	0.9126	-2.7466	-1.5869	-3.2349	-2.6038	-24.0765	87.0612	51.7600 
604.301	0.4238	-0.0308	0.9131	-2.6855	-0.5493	-2.0142	-2.6147	-24.0930	87.0007	51.7600 
604.301	0.4111	-0.0435	0.9150	-2.5024	0.0000	-1.3428	-2.6312	-24.0930	86.9568	51.8100 
604.332	0.4072	-0.0469	0.9175	-2.3193	-0.0610	-2.1362	-2.6532	-24.0930	86.9019	51.6700 
604.332	0.4111	-0.0483	0.9126	-2.1973	0.0000	-3.1128	-2.6642	-24.0985	86.8414	51.4700 
604.332	0.4204	-0.0503	0.9063	-1.3428	0.4272	-3.9673	-2.6697	-24.0985	86.7755	51.8100 
604.363	0.4243	-0.0527	0.9067	-1.3428	1.4648	-4.3335	-2.6642	-24.0930	86.7041	51.6700 
604.363	0.4307	-0.0625	0.9077	-0.9766	1.9531	-4.1504	-2.6642	-24.0875	86.6327	51.6700 
604.395	0.4277	-0.0737	0.9170	-0.6104	2.6245	-4.2725	-2.6587	-24.0710	86.5668	51.8100 
604.395	0.4209	-0.0791	0.9238	-0.1831	2.4414	-5.3711	-2.6532	-24.0491	86.4899	51.6200 
604.395	0.4121	-0.0752	0.9282	-0.1221	1.5259	-5.6152	-2.6422	-24.0326	86.4130	51.6200 
604.410	0.4131	-0.0698	0.9312	0.3662	0.6714	-6.8359	-2.6202	-24.0216	86.3196	51.6700 
604.410	0.4160	-0.0591	0.9336	0.2441	-0.4883	-7.2632	-2.5928	-24.0271	86.2152	51.5700 
604.426	0.4248	-0.0493	0.9399	-0.6104	-1.2817	-6.8359	-2.5708	-24.0436	86.1163	51.6700 
604.426	0.4268	-0.0469	0.9263	-0.6104	-2.4414	-5.9814	-2.5543	-24.0710	86.0229	51.6700 
604.457	0.4277	-0.0405	0.9043	-0.9155	-2.4414	-5.1880	-2.5378	-24.1040	85.9406	51.7600 
604.488	0.4243	-0.0518	0.9009	-1.0986	-1.7090	-4.8828	-2.5323	-24.1315	85.8582	51.7600 
604.488	0.4229	-0.0527	0.8887	-1.3428	-0.9766	-5.3711	-2.5214	-24.1534	85.7813	51.6700 
604.488	0.4204	-0.0557	0.8848	-1.2817	-0.7935	-6.5308	-2.5159	-24.1699	85.6934	51.6200 
604.504	0.4272	-0.0566	0.8779	-0.5493	0.9766	-7.0801	-2.4994	-24.1809	85.6000	51.5700 
604.504	0.4277	-0.0498	0.8867	-0.6104	2.7466	-8.3618	-2.4719	-24.1699	85.4901	51.7600 
604.520	0.4346	-0.0464	0.8960	-0.6714	3.8452	-8.6670	-2.4445	-24.1479	85.3693	51.5700 
604.520	0.4321	-0.0469	0.9146	-0.7935	3.7231	-8.8501	-2.4115	-24.1205	85.2484	51.6700 
604.520	0.4282	-0.0454	0.9199	-0.1831	2.9907	-9.3384	-2.3785	-24.0985	85.1276	51.7600 
604.535	0.4229	-0.0327	0.9268	-0.5493	2.5024	-9.3384	-2.3401	-24.0765	84.9957	51.5700 
604.535	0.4165	-0.0239	0.9292	-0.5493	1.4648	-9.1553	-2.2961	-24.0656	84.8639	51.7600 
604.551	0.4219	-0.0117	0.9243	-0.4272	0.2441	-8.9111	-2.2522	-24.0656	84.7375	51.8100 
604.566	0.4233	-0.0132	0.9272	-0.6104	-0.1831	-8.4839	-2.2137	-24.0710	84.6057	51.8600 
604.598	0.4229	-0.0146	0.9048	-0.8545	0.1831	-7.5684	-2.1753	-24.0765	84.4904	51.7600 
604.598	0.4312	-0.0156	0.9072	-1.2817	0.6714	-7.4463	-2.1478	-24.0820	84.3805	51.4300 
604.613	0.4385	-0.0220	0.8882	-2.4414	2.5024	-7.8735	-2.1313	-24.0765	84.2706	51.8100 
604.613	0.4521	-0.0264	0.8916	-3.2959	5.2490	-7.2021	-2.1204	-24.0491	84.1608	51.7600 
604.613	0.4629	-0.0361	0.9014	-4.2725	7.0801	-5.9204	-2.1313	-23.9996	84.0674	51.5700 
604.629	0.4629	-0.0503	0.8989	-4.8218	7.2632	-5.4932	-2.1588	-23.9502	83.9905	51.8100 
604.629	0.4604	-0.0537	0.9028	-4.3945	7.0801	-4.8218	-2.1863	-23.9008	83.9246	51.7600 
604.660	0.4463	-0.0498	0.8950	-3.9063	7.3853	-4.4556	-2.2137	-23.8458	83.8641	51.5700 
604.660	0.4453	-0.0415	0.8906	-3.2959	7.6294	-4.8218	-2.2302	-23.7854	83.7927	51.8100 
604.660	0.4438	-0.0308	0.8833	-2.8687	7.9346	-5.5542	-2.2357	-23.7250	83.7158	51.5700 
604.691	0.4497	-0.0254	0.8774	-2.3193	8.9111	-5.6763	-2.2302	-23.6646	83.6334	51.7600 
604.691	0.4531	-0.0200	0.8662	-2.3804	10.1318	-5.5542	-2.2192	-23.5931	83.5455	51.8100 
604.691	0.4648	-0.0205	0.8647	-1.7090	10.8032	-5.0659	-2.2083	-23.5162	83.4686	51.7600 
604.723	0.4619	-0.0264	0.8740	-1.5869	12.6953	-4.0894	-2.2028	-23.4229	83.3972	51.7600 
604.723	0.4565	-0.0430	0.9033	-1.8921	14.0991	-3.9673	-2.2028	-23.3130	83.3368	51.5700 
604.723	0.4473	-0.0566	0.9209	-1.6479	13.3667	-5.5542	-2.2028	-23.1921	83.2709	51.8100 
604.738	0.4409	-0.0571	0.9326	-1.8311	13.0615	-7.6294	-2.1973	-23.0768	83.1830	51.6700 
604.754	0.4448	-0.0542	0.9468	-2.3193	12.3901	-9.8877	-2.1808	-22.9669	83.0621	51.8100 
604.754	0.4448	-0.0581	0.9438	-2.1973	10.8032	-10.0098	-2.1643	-22.8735	82.9468	51.9500 
604.754	0.4355	-0.0508	0.9492	-2.3804	9.7656	-10.3760	-2.1478	-22.7911	82.8259	51.6700 
604.770	0.4219	-0.0435	0.9414	-1.8921	8.1787	-9.9487	-2.1313	-22.7197	82.7051	51.6700 
604.770	0.4048	-0.0522	0.9185	-1.4648	7.3853	-9.8877	-2.1149	-22.6538	82.5897	51.6200 
604.785	0.4053	-0.0439	0.9043	-1.0986	7.1411	-10.3760	-2.0874	-22.5934	82.4689	51.8100 
604.832	0.4092	-0.0293	0.9009	-0.6104	6.9580	-11.5356	-2.0435	-22.5385	82.3370	51.6200 
604.832	0.4248	-0.0078	0.9063	0.1221	7.1411	-11.3525	-1.9885	-22.4835	82.1942	51.8100 
604.832	0.4355	-0.0015	0.9102	0.1831	6.7139	-11.4136	-1.9281	-22.4341	82.0459	51.7600 
604.863	0.4512	0.0088	0.9248	0.4883	5.4321	-10.8643	-1.8677	-22.4011	81.9031	51.5700 
604.863	0.4629	0.0142	0.9351	1.0376	4.2114	-9.0332	-1.8018	-22.3846	81.7712	51.7600 
604.863	0.4575	0.0020	0.9321	1.2817	3.7842	-6.6528	-1.7468	-22.3737	81.6724	51.6700 
604.863	0.4331	-0.0098	0.9297	1.7090	3.6011	-5.3711	-1.6974	-22.3572	81.5955	51.7600 
604.863	0.4097	-0.0215	0.9404	1.8311	3.2959	-4.5776	-1.6589	-22.3297	81.5295	51.7600 
604.895	0.3921	-0.0298	0.9429	1.8311	2.1362	-5.6763	-1.6150	-22.3132	81.4636	51.6200 
604.910	0.3838	-0.0317	0.9365	1.8311	0.6714	-6.9580	-1.5765	-22.3022	81.3867	51.8100 
604.910	0.3906	-0.0342	0.9287	1.7090	-0.2441	-7.9346	-1.5326	-22.3077	81.3043	51.8100 
604.910	0.4019	-0.0220	0.9155	1.4648	-0.7324	-8.1787	-1.4832	-22.3242	81.2054	51.6200 
604.926	0.4072	-0.0161	0.9102	1.4648	-0.8545	-7.5073	-1.4337	-22.3462	81.1176	51.8600 
604.926	0.4053	-0.0220	0.9038	1.3428	-0.1831	-6.5918	-1.3898	-22.3572	81.0406	51.7600 
604.942	0.4053	-0.0146	0.9097	1.8311	0.0000	-6.7139	-1.3458	-22.3737	80.9583	51.6700 
604.973	0.3975	-0.0200	0.9097	2.3193	-0.4272	-6.7749	-1.2964	-22.3846	80.8813	51.6700 
604.973	0.3975	-0.0195	0.9014	2.6245	0.0610	-7.2632	-1.2415	-22.3956	80.7990	51.6700 
604.988	0.3989	-0.0161	0.8989	2.8076	-0.1831	-7.0190	-1.1865	-22.4066	80.7166	51.7600 
604.988	0.3989	-0.0117	0.8838	2.9297	0.3052	-6.2866	-1.1261	-22.4176	80.6396	51.6700 
605.004	0.4082	-0.0063	0.8662	3.2959	1.5259	-5.3101	-1.0657	-22.4231	80.5682	51.8100 
605.004	0.4097	-0.0117	0.8682	3.6621	2.5024	-4.1504	-1.0107	-22.4176	80.5133	51.7600 
605.004	0.4072	-0.0083	0.8667	3.7231	3.2349	-2.9297	-0.9558	-22.4011	80.4749	51.7600 
605.020	0.4067	-0.0117	0.8584	4.6997	4.6387	-2.3193	-0.9009	-22.3792	80.4419	51.9500 
605.067	0.4048	-0.0181	0.8608	5.3711	5.5542	-1.9531	-0.8405	-22.3407	80.4144	51.7600 
605.067	0.3857	-0.0220	0.8716	6.1035	6.0425	-0.6714	-0.7800	-22.2968	80.4034	51.6700 
605.067	0.3735	-0.0361	0.8599	6.7749	7.0801	-0.5493	-0.7196	-22.2363	80.3979	51.7600 
605.067	0.3594	-0.0586	0.8599	7.9346	9.2773	-1.0376	-0.6592	-22.1539	80.4034	51.6700 
605.067	0.3574	-0.0610	0.8735	8.2397	12.5732	-3.2959	-0.5823	-22.0386	80.3815	51.7600 
605.098	0.3696	-0.0532	0.8926	8.6670	16.2354	-5.3101	-0.4944	-21.8848	80.3375	51.7600 
605.098	0.3970	-0.0400	0.9385	8.5449	18.3716	-5.9814	-0.4010	-21.7145	80.2826	51.6200 
605.098	0.4380	-0.0225	0.9575	8.1787	19.2261	-5.5542	-0.3021	-21.5387	80.2167	51.5700 
605.145	0.4771	-0.0132	0.9766	7.3853	18.7988	-3.6011	-0.2142	-21.3739	80.1672	51.6700 
605.145	0.4985	0.0015	0.9609	6.5308	17.5171	-0.2441	-0.1428	-21.2311	80.1453	51.8100 
605.145	0.4858	0.0078	0.9248	5.3101	16.4795	4.4556	-0.0934	-21.1047	80.1672	51.7600 
605.160	0.4546	-0.0132	0.8770	4.0894	16.4185	8.0566	-0.0824	-20.9784	80.2386	51.7600 
605.160	0.4370	-0.0371	0.8647	2.9297	18.8599	8.2397	-0.0934	-20.8301	80.3265	51.6700 
605.160	0.4438	-0.0488	0.8564	2.3804	21.4844	7.0801	-0.1099	-20.6598	80.4144	51.5700 
605.176	0.4536	-0.0459	0.8823	2.8076	23.0713	6.7749	-0.1263	-20.4730	80.4913	51.5700 
605.176	0.4883	-0.0640	0.9111	3.0518	22.9492	6.7139	-0.1428	-20.2917	80.5737	51.8100 
605.207	0.5127	-0.0654	0.9497	3.0518	20.7520	7.2632	-0.1593	-20.1270	80.6616	51.7600 
605.207	0.5229	-0.0640	0.9565	3.1128	17.2119	8.9722	-0.1813	-20.0006	80.7605	51.6200 
605.223	0.4985	-0.0596	0.9541	2.9907	14.2212	10.7422	-0.2087	-19.8962	80.8813	51.8600 
605.223	0.4722	-0.0562	0.9351	2.7466	12.4512	11.7798	-0.2417	-19.8083	81.0077	51.6700 
605.270	0.4424	-0.0718	0.9141	2.1362	11.1694	11.1694	-0.2802	-19.7314	81.1395	51.8600 
605.270	0.4185	-0.0786	0.8848	2.1362	11.5356	8.6670	-0.3186	-19.6545	81.2494	51.6700 
605.270	0.4194	-0.0732	0.8584	1.8311	12.6343	5.8594	-0.3461	-19.5667	81.3263	51.6700 
605.301	0.4136	-0.0625	0.8354	1.5259	14.8926	4.0894	-0.3680	-19.4623	81.3867	51.6700 
605.301	0.4033	-0.0601	0.8472	1.7700	14.8315	2.9907	-0.3845	-19.3524	81.4252	51.7600 
605.301	0.3979	-0.0723	0.8584	1.4038	14.4653	1.0986	-0.4010	-19.2426	81.4526	51.8600 
605.301	0.4082	-0.0547	0.8730	1.0986	14.2822	-1.4038	-0.4065	-19.1382	81.4471	51.7600 
605.332	0.4136	-0.0508	0.8726	0.5493	13.4277	-1.8921	-0.4065	-19.0393	81.4307	51.7600 
605.332	0.3994	-0.0610	0.8638	1.0986	12.8784	-0.5493	-0.4175	-18.9404	81.4252	51.6200 
605.332	0.3853	-0.0674	0.8477	0.7935	14.1602	0.3662	-0.4340	-18.8361	81.4362	51.7600 
605.332	0.3789	-0.0552	0.8491	0.4883	16.1743	0.9155	-0.4504	-18.7097	81.4471	51.7600 
605.379	0.3945	-0.0396	0.8716	0.7935	17.0898	1.4648	-0.4614	-18.5724	81.4581	51.6200 
605.379	0.4019	-0.0239	0.8862	1.0376	16.2964	3.1738	-0.4669	-18.4460	81.4801	52.0000 
605.379	0.4126	-0.0059	0.8940	1.5259	15.0146	4.6997	-0.4724	-18.3307	81.5076	51.8100 
605.395	0.4204	0.0010	0.9141	1.8311	13.0005	6.7749	-0.4724	-18.2318	81.5570	51.8600 
605.395	0.4204	-0.0088	0.9180	2.8076	11.3525	8.2397	-0.4724	-18.1494	81.6229	51.7600 
605.410	0.4160	-0.0200	0.9087	3.2349	10.3149	9.7656	-0.4779	-18.0835	81.7108	51.7600 
605.410	0.4160	-0.0269	0.9111	3.7231	10.4980	11.1694	-0.4779	-18.0176	81.8097	51.8100 
605.410	0.4204	-0.0381	0.9194	5.0049	10.6201	11.3525	-0.4779	-17.9462	81.9196	51.8600 
605.442	0.4268	-0.0439	0.9307	5.3711	10.4370	11.5356	-0.4779	-17.8802	82.0349	52.0000 
605.442	0.4370	-0.0386	0.9297	5.8594	9.5825	12.6953	-0.4724	-17.8253	82.1613	51.6700 
605.442	0.4399	-0.0361	0.9258	5.2490	9.2773	13.3667	-0.4724	-17.7759	82.2931	51.8600 
605.473	0.4458	-0.0503	0.9253	4.5166	9.1553	14.8926	-0.4889	-17.7264	82.4469	51.7600 
605.504	0.4355	-0.0708	0.9341	5.0659	8.7280	15.9912	-0.5054	-17.6825	82.6117	51.8100 
605.504	0.4214	-0.0889	0.9409	6.4697	7.5684	15.6250	-0.5219	-17.6440	82.7875	51.8600 
605.504	0.4233	-0.1021	0.9370	7.4463	5.4932	12.6343	-0.5273	-17.6221	82.9468	51.6700 
605.504	0.4497	-0.1094	0.9277	8.1177	4.8218	10.5591	-0.5164	-17.6166	83.0786	51.8100 
605.520	0.4639	-0.1040	0.9209	7.7515	6.1646	10.7422	-0.5054	-17.6111	83.1995	51.7600 
605.520	0.4814	-0.1162	0.9482	6.5918	8.3618	10.6812	-0.5054	-17.5891	83.3313	51.8600 
605.551	0.4917	-0.1187	0.9814	5.4321	10.3760	9.3384	-0.5109	-17.5452	83.4467	51.6200 
605.551	0.5093	-0.1162	1.0195	4.0894	10.6201	8.2397	-0.5273	-17.4902	83.5510	51.7600 
605.567	0.5190	-0.1138	1.0488	3.9063	10.4370	8.1177	-0.5493	-17.4353	83.6499	51.6700 
605.567	0.5317	-0.1089	1.0654	2.9907	8.6670	7.6294	-0.5713	-17.4023	83.7433	51.8600 
605.582	0.5444	-0.1064	1.0776	2.9907	7.2021	6.7749	-0.5878	-17.3804	83.8257	52.1000 
605.582	0.5425	-0.0791	1.0747	2.6855	5.3101	7.0801	-0.6042	-17.3804	83.8971	51.9500 
605.582	0.5464	-0.0913	1.0723	1.0986	2.5024	7.5684	-0.6372	-17.4023	83.9795	52.0000 
605.598	0.5454	-0.0864	1.0781	0.3662	-1.1597	8.4839	-0.6812	-17.4628	84.0674	51.8100 
605.598	0.5229	-0.0493	1.0762	-0.2441	-4.9438	10.1929	-0.7251	-17.5507	84.1608	51.7600 
605.598	0.5073	-0.0200	1.0830	-0.3662	-6.4697	13.7939	-0.7745	-17.6550	84.2816	51.8100 
605.598	0.4941	-0.0161	1.1216	0.4272	-9.2163	15.1367	-0.8240	-17.7759	84.4189	51.8100 
605.629	0.4932	-0.0684	1.1470	1.2817	-10.3149	14.1602	-0.8734	-17.9077	84.5618	51.8100 
605.676	0.4976	-0.0908	1.1504	2.0142	-9.9487	10.0708	-0.9064	-18.0396	84.6771	52.0000 
605.676	0.4355	-0.0811	1.1797	0.1221	-12.4512	7.8735	-0.9448	-18.1714	84.7595	51.6700 
605.676	0.3618	-0.0981	1.1914	-2.1973	-16.4185	6.8359	-1.0052	-18.3197	84.8309	52.0000 
605.707	0.2866	-0.1235	1.1714	-5.1270	-17.5781	5.3711	-1.0986	-18.4735	84.8969	51.7600 
605.707	0.1997	-0.0903	1.1372	-6.8359	-17.0898	4.9438	-1.2085	-18.5944	84.9463	51.8600 
605.707	0.1172	-0.0303	1.0698	-7.3242	-17.2119	6.7139	-1.3074	-18.6987	84.9847	51.8100 
605.707	0.0479	0.0532	1.0137	-6.1646	-14.6484	8.7891	-1.3733	-18.7646	85.0012	51.9500 
605.723	-0.0063	0.1084	0.9912	-4.4556	-11.4136	11.4136	-1.4008	-18.7811	85.0012	51.9500 
605.723	-0.0239	0.1353	0.9561	-1.1597	-9.2163	11.3525	-1.3843	-18.7701	84.9847	52.0000 
605.723	-0.0215	0.1704	0.9429	2.6245	-6.0425	10.4370	-1.3074	-18.7317	84.9298	52.0000 
605.754	-0.0176	0.2202	0.9399	5.9204	-2.0752	12.3901	-1.1810	-18.6658	84.8694	51.9500 
605.754	0.0024	0.2549	0.9624	8.9722	1.8311	15.5640	-1.0217	-18.5669	84.8364	51.6700 
605.754	0.0210	0.2642	0.9863	11.1084	4.6997	20.2637	-0.8569	-18.4460	84.8474	51.6700 
605.785	0.0430	0.2388	1.0083	12.8174	5.2490	24.4751	-0.7031	-18.3197	84.9188	51.8100 
605.785	0.0713	0.2056	1.0342	13.7329	3.9063	28.3813	-0.5603	-18.2043	85.0507	51.9500 
605.801	0.1201	0.1699	1.0327	15.0146	3.3569	30.8228	-0.4340	-18.1055	85.2319	52.0000 
605.801	0.1670	0.1250	1.0317	15.8691	3.2959	34.4849	-0.3296	-18.0231	85.4736	51.8600 
605.817	0.2188	0.0674	1.0298	17.2119	1.2207	35.8887	-0.2417	-17.9681	85.7648	51.7600 
605.817	0.2671	0.0239	1.0156	17.7002	1.5869	35.8276	-0.1703	-17.9297	86.0834	51.8100 
605.832	0.2847	-0.0078	1.0371	18.0664	-0.4272	36.8042	-0.0989	-17.9077	86.4185	52.1000 
605.879	0.3018	-0.0479	1.0283	17.0288	-3.7842	35.0952	-0.0549	-17.9297	86.7590	52.0000 
605.879	0.3027	-0.0737	0.9927	15.6250	-7.0801	32.7148	-0.0275	-17.9846	87.0831	51.8600 
605.895	0.2930	-0.1011	0.9380	13.6719	-8.9722	31.4941	-0.0220	-18.0670	87.4017	51.7600 
605.927	0.2925	-0.1182	0.8877	11.9629	-9.6436	28.5034	-0.0385	-18.1604	87.7039	51.8600 
605.927	0.2974	-0.1245	0.8555	9.9487	-8.9111	25.0244	-0.0659	-18.2538	87.9785	51.8100 
605.927	0.3052	-0.1196	0.8237	7.9346	-8.1177	21.8506	-0.1044	-18.3472	88.2092	51.8100 
605.927	0.3081	-0.1152	0.8115	6.2866	-7.0801	18.2495	-0.1483	-18.4296	88.4125	52.1900 
605.927	0.3135	-0.1040	0.8174	4.2114	-7.3242	13.4277	-0.1923	-18.5175	88.5553	51.8100 
605.927	0.3242	-0.0918	0.8164	1.9531	-8.6670	8.9722	-0.2417	-18.6163	88.6432	52.0000 
605.958	0.3315	-0.0840	0.8096	0.0610	-9.0332	4.0894	-0.2856	-18.7262	88.6816	52.0000 
605.958	0.3506	-0.0703	0.8003	-1.7700	-9.5215	0.4883	-0.3351	-18.8416	88.6707	51.8600 
605.958	0.3716	-0.0493	0.7979	-3.6621	-10.2539	-2.8687	-0.3790	-18.9789	88.6157	52.1000 
605.989	0.3916	-0.0342	0.7979	-5.2490	-11.4136	-5.2490	-0.4285	-19.1327	88.5333	51.8100 
606.004	0.4009	-0.0078	0.8105	-6.2866	-12.8174	-6.4697	-0.4724	-19.2975	88.4235	51.8100 
606.020	0.4009	0.0117	0.8247	-7.0801	-14.0991	-6.3477	-0.5164	-19.4733	88.3026	52.0000 
606.020	0.3960	0.0244	0.8223	-8.3008	-14.1602	-7.5684	-0.5658	-19.6545	88.1708	52.0000 
606.020	0.3853	0.0166	0.8184	-8.7891	-12.8174	-8.7891	-0.6152	-19.8248	88.0280	51.8100 
606.052	0.3882	0.0137	0.8120	-8.7280	-11.8408	-10.9863	-0.6537	-19.9786	87.8632	52.0000 
606.052	0.4048	0.0146	0.8203	-8.2397	-10.3760	-13.9771	-0.6866	-20.1270	87.6764	51.9500 
606.052	0.4204	0.0200	0.8276	-7.9346	-10.9863	-16.2354	-0.7031	-20.2753	87.4567	51.8600 
606.052	0.4209	0.0225	0.8169	-7.7515	-11.8408	-15.3809	-0.7141	-20.4346	87.2424	52.0000 
606.098	0.3989	0.0269	0.8027	-7.7515	-12.3901	-13.6108	-0.7251	-20.5994	87.0392	52.1000 
606.114	0.3584	0.0020	0.7876	-8.6060	-12.2681	-13.3057	-0.7526	-20.7532	86.8524	52.1000 
606.114	0.3286	-0.0059	0.7476	-9.3384	-9.8877	-15.1978	-0.7855	-20.8795	86.6547	52.1000 
606.145	0.3052	-0.0137	0.7388	-10.2539	-6.7139	-16.1133	-0.8295	-20.9674	86.4459	51.9500 
606.145	0.3003	-0.0269	0.7451	-11.5356	-3.8452	-17.8223	-0.8844	-21.0223	86.2372	52.0000 
606.145	0.3208	-0.0337	0.7900	-12.3291	-1.8311	-22.9492	-0.9283	-21.0498	85.9790	52.0000 
606.145	0.3887	-0.0205	0.8574	-13.0005	-1.1597	-29.2358	-0.9558	-21.0828	85.6549	52.1900 
606.145	0.4971	-0.0063	0.9712	-13.3057	-2.3804	-34.7290	-0.9613	-21.1377	85.2649	51.8600 
606.145	0.6279	0.0166	1.0986	-12.2070	-6.5308	-38.8794	-0.9283	-21.2476	84.8309	52.0000 
606.145	0.7402	0.0635	1.2339	-10.0708	-14.0381	-39.3066	-0.8679	-21.4288	84.3695	52.1400 
606.145	0.7764	0.0796	1.2886	-7.3853	-24.0479	-33.4473	-0.7910	-21.7035	83.9575	52.0000 
606.176	0.7363	0.1157	1.2417	-5.3101	-30.3955	-22.7051	-0.7141	-22.0551	83.6389	52.0000 
606.176	0.6421	0.1279	1.1406	-4.3335	-30.9448	-13.4888	-0.6647	-22.4176	83.4302	52.0000 
606.176	0.5645	0.1157	1.0415	-2.8687	-25.5127	-7.0190	-0.6262	-22.7307	83.2928	51.9500 
606.224	0.5244	0.1265	0.9834	-2.3193	-17.1509	-6.2866	-0.5823	-22.9559	83.1720	52.0000 
606.224	0.5435	0.1416	0.9897	-1.7700	-10.4980	-6.1646	-0.5273	-23.1097	83.0457	51.8600 
606.239	0.5830	0.1538	1.0371	-1.4648	-5.8594	-5.1270	-0.4724	-23.2141	82.9248	52.1900 
606.239	0.6064	0.1450	1.1611	-1.1597	-5.4932	-3.1738	-0.4285	-23.2965	82.8314	52.1000 
606.239	0.6313	0.0850	1.2871	-1.2817	-8.6060	-3.0518	-0.4010	-23.3954	82.7545	52.1000 
606.254	0.6187	0.0361	1.3940	-0.0610	-14.5264	0.7324	-0.3845	-23.5327	82.7216	52.1000 
606.270	0.5596	-0.0298	1.4229	1.0986	-20.8130	3.5400	-0.3900	-23.7140	82.7380	52.0000 
606.270	0.4927	-0.0864	1.3320	0.9766	-24.4751	3.3569	-0.4175	-23.9337	82.7765	52.1400 
606.301	0.4238	-0.0327	1.1489	1.3428	-22.8882	3.5400	-0.4285	-24.1479	82.8040	52.1400 
606.301	0.3472	-0.0410	1.0020	0.6714	-17.2729	9.2163	-0.4614	-24.3073	82.8754	51.7600 
606.301	0.2461	-0.1113	0.9131	0.1221	-13.1226	11.6577	-0.5493	-24.3951	83.0127	51.8600 
606.333	0.1289	-0.1792	0.8525	-0.5493	-13.9771	10.4980	-0.6702	-24.4501	83.1885	52.0000 
606.333	0.0034	-0.2666	0.7739	-2.9297	-16.2354	3.5400	-0.8459	-24.4885	83.3972	52.1400 
606.333	-0.0703	-0.3350	0.6841	-6.3477	-14.5264	-7.9346	-1.0822	-24.5215	83.5950	52.0000 
606.333	-0.0845	-0.4121	0.6484	-8.3618	-9.2773	-24.7192	-1.3184	-24.5435	83.7103	52.1000 
606.364	-0.0503	-0.4175	0.6538	-12.2681	2.6245	-40.9546	-1.5216	-24.4775	83.6279	52.0000 
606.364	0.0293	-0.3765	0.7695	-16.5405	14.4653	-55.6641	-1.6479	-24.2908	83.3093	52.0000 
606.364	0.1694	-0.2915	0.9365	-18.9819	21.8506	-66.1621	-1.6699	-24.0271	82.7490	52.0000 
606.379	0.2686	-0.1675	1.0811	-19.5313	19.8975	-67.6880	-1.6205	-23.7744	82.0569	52.0000 
606.395	0.3062	-0.0674	1.1646	-17.9443	10.3149	-61.5234	-1.5436	-23.6096	81.3702	52.1400 
606.395	0.2915	0.0029	1.1553	-15.3809	-0.4272	-54.5654	-1.4557	-23.5492	80.7330	52.1400 
606.395	0.2500	0.0630	1.0918	-13.3057	-5.9204	-48.7671	-1.3458	-23.5492	80.1398	52.1900 
606.410	0.2197	0.1030	1.0278	-10.4370	-4.8828	-44.1895	-1.2195	-23.5492	79.5795	52.1000 
606.426	0.2178	0.1343	0.9829	-8.6060	0.0000	-41.6260	-1.0657	-23.5107	79.0411	52.1900 
606.426	0.2471	0.1494	0.9639	-6.2256	3.9063	-40.3442	-0.8899	-23.4338	78.5138	52.0000 
606.457	0.2827	0.1675	0.9624	-3.9673	4.8828	-38.3911	-0.6976	-23.3514	78.0084	52.1000 
606.457	0.3203	0.1733	0.9458	-1.2817	2.6245	-33.9355	-0.4944	-23.2965	77.5525	52.0000 
606.457	0.3276	0.1685	0.9189	1.0376	-0.2441	-28.0151	-0.2911	-23.2690	77.1625	51.9500 
606.504	0.3174	0.1489	0.8984	3.2349	-3.7842	-20.9351	-0.1044	-23.2800	76.8549	52.1000 
606.535	0.2974	0.1123	0.8618	4.9438	-6.8970	-15.5029	0.0549	-23.3240	76.6241	52.1400 
606.535	0.2837	0.0776	0.8140	6.2866	-7.1411	-11.6577	0.2032	-23.3679	76.4539	52.1900 
606.535	0.2861	0.0444	0.7935	7.2632	-5.2490	-8.5449	0.3351	-23.4064	76.3330	52.1400 
606.535	0.3003	0.0293	0.7700	7.8735	-3.2959	-5.0659	0.4559	-23.4283	76.2616	52.1400 
606.535	0.3140	0.0107	0.7700	9.2773	-1.5869	-2.1362	0.5603	-23.4338	76.2341	52.0000 
606.551	0.3301	0.0034	0.7729	9.7656	-1.2817	1.3428	0.6537	-23.4448	76.2451	52.1000 
606.551	0.3418	-0.0151	0.7769	10.0708	-1.9531	3.4790	0.7306	-23.4668	76.2946	52.1000 
606.582	0.3516	-0.0317	0.7822	10.0098	-3.0518	4.6387	0.7965	-23.4998	76.3660	52.1400 
606.582	0.3608	-0.0415	0.7935	10.0708	-4.7607	5.0659	0.8569	-23.5492	76.4484	52.0000 
606.582	0.3794	-0.0625	0.7988	9.7046	-7.5073	5.9814	0.9009	-23.6261	76.5472	51.9500 
606.598	0.3862	-0.0684	0.8184	9.5215	-11.3525	6.0425	0.9393	-23.7415	76.6516	51.9500 
606.598	0.3813	-0.0708	0.8076	9.1553	-15.6860	7.0190	0.9668	-23.8953	76.7670	51.8600 
606.598	0.3774	-0.0757	0.7827	8.0566	-19.2871	7.8735	0.9833	-24.0930	76.8878	52.1000 
606.614	0.3677	-0.0923	0.7539	7.1411	-22.2168	8.6060	0.9723	-24.3237	77.0251	51.8600 
606.614	0.3613	-0.1138	0.7061	5.8594	-22.5830	8.0566	0.9448	-24.5709	77.1735	52.1400 
606.614	0.3623	-0.1235	0.6694	4.9438	-20.2637	6.8359	0.9009	-24.8016	77.3163	52.1000 
606.645	0.3633	-0.1133	0.6372	4.0894	-17.1509	6.7139	0.8569	-25.0104	77.4481	52.0000 
606.660	0.3906	-0.1045	0.6396	3.6011	-12.3901	5.9814	0.8075	-25.1862	77.5800	51.8100 
606.660	0.4321	-0.0840	0.6616	3.1128	-7.2632	4.6387	0.7690	-25.3180	77.6843	51.9500 
606.660	0.4883	-0.0669	0.6963	2.9907	-3.1738	5.9204	0.7416	-25.4169	77.7887	52.1900 
606.707	0.5444	-0.0293	0.7715	3.0518	-1.2817	7.8125	0.7196	-25.4938	77.8876	51.9500 
606.707	0.5845	0.0059	0.8428	2.9297	-2.5024	9.8267	0.7031	-25.5707	78.0029	52.1400 
606.739	0.5938	0.0688	0.9302	3.3569	-5.5542	12.6343	0.6921	-25.6641	78.1238	52.1400 
606.739	0.5913	0.0415	0.9512	3.9063	-11.7188	19.8975	0.6537	-25.8069	78.3215	52.0000 
606.739	0.5791	0.0181	0.9282	3.9673	-14.0991	20.7520	0.5933	-25.9827	78.5468	52.1000 
606.739	0.5771	-0.0020	0.9263	3.4790	-13.2446	18.7988	0.5328	-26.1584	78.7665	52.1400 
606.754	0.6143	-0.0107	0.9204	2.7466	-10.8643	16.1133	0.4779	-26.3177	78.9532	52.1000 
606.754	0.6768	-0.0415	0.9277	1.9531	-7.5684	13.6719	0.4175	-26.4551	79.1235	52.1000 
606.754	0.7290	-0.0757	0.9570	0.3662	-2.1973	10.7422	0.3461	-26.5594	79.2773	52.1900 
606.770	0.7534	-0.1250	1.0044	-0.5493	1.5869	9.9487	0.2582	-26.6144	79.4202	52.1400 
606.801	0.7520	-0.1826	1.0503	-1.5869	3.1738	10.5591	0.1428	-26.6418	79.5795	51.9500 
606.801	0.7329	-0.2046	1.0894	-1.6479	4.5776	9.0942	0.0220	-26.6473	79.7443	52.2900 
606.817	0.7231	-0.1572	1.1284	-2.1973	5.0049	4.9438	-0.0714	-26.6364	79.8541	52.2900 
606.832	0.7119	-0.0371	1.2227	-3.6621	4.7607	5.0049	-0.1483	-26.6144	79.9200	52.1400 
606.832	0.6934	0.0986	1.3433	-3.0518	4.3335	9.0942	-0.2032	-26.5704	79.9805	52.2900 
606.848	0.6455	0.2324	1.4502	0.5493	1.5259	13.3667	-0.2197	-26.5430	80.0574	52.2900 
606.848	0.5244	0.3804	1.4961	6.5308	-4.5776	26.4282	-0.1923	-26.5375	80.2002	52.2900 
606.848	0.3726	0.3579	1.3999	10.6201	-16.2354	43.8232	-0.1868	-26.6199	80.5078	52.1400 
606.864	0.2295	0.1934	1.1733	11.9629	-22.2168	52.6733	-0.2417	-26.7517	80.9528	52.1900 
606.910	0.0674	0.1226	0.9458	10.9863	-15.3809	54.6875	-0.3296	-26.8121	81.4252	52.1400 
606.910	-0.0806	0.0781	0.8223	8.0566	-3.5400	55.3589	-0.4395	-26.7133	81.8756	52.1000 
606.926	-0.1860	0.0688	0.7607	6.0425	9.6436	54.0161	-0.5328	-26.4386	82.2382	52.1400 
606.957	-0.2271	0.0605	0.7617	5.7983	23.8647	46.2646	-0.5768	-26.0156	82.4799	52.1000 
606.957	-0.1841	0.0942	0.8750	7.5073	38.0859	36.3159	-0.5603	-25.4608	82.6227	52.0000 
606.957	-0.0522	0.1006	1.0581	10.4980	41.5649	29.8462	-0.5219	-24.8785	82.7710	52.2900 
606.957	0.1216	0.1147	1.2295	14.5264	35.0952	25.2686	-0.4504	-24.3842	82.9193	52.1000 
606.957	0.2817	0.1660	1.3467	17.8223	23.0103	28.6865	-0.3461	-24.0436	83.1061	52.1900 
606.957	0.3735	0.1978	1.3823	19.9585	8.9722	39.3066	-0.2527	-23.8733	83.3917	52.0000 
606.957	0.4067	0.1440	1.3462	19.9585	-2.0142	50.4761	-0.2142	-23.8239	83.8147	52.1900 
606.973	0.3896	0.0308	1.2617	18.3105	-6.9580	56.0913	-0.2472	-23.8458	84.3475	52.1400 
606.973	0.3574	-0.0830	1.1514	14.7705	-5.2490	55.6030	-0.3516	-23.8678	84.9353	52.1900 
606.973	0.3315	-0.1733	1.0767	10.6201	-0.8545	51.2085	-0.5109	-23.8403	85.5176	52.1900 
607.004	0.3188	-0.2109	1.0063	7.4463	1.9531	44.9829	-0.7031	-23.7854	86.0614	52.1400 
607.004	0.3184	-0.2310	0.9292	5.3101	3.9063	40.4053	-0.9119	-23.7140	86.5668	52.1900 
607.035	0.3281	-0.2109	0.8604	5.6763	4.7607	36.6211	-1.0986	-23.6481	87.0227	51.9500 
607.082	0.3384	-0.1768	0.7866	6.1035	7.5684	33.0811	-1.2579	-23.5657	87.4292	52.1000 
607.082	0.3423	-0.1348	0.7476	6.7139	10.3760	31.0059	-1.3843	-23.4668	87.7917	51.8600 
607.129	0.3369	-0.1230	0.7310	7.3242	12.8174	26.2451	-1.4832	-23.3405	88.0939	52.1400 
607.129	0.3433	-0.0801	0.7593	6.3477	14.3433	17.5781	-1.5381	-23.2031	88.2971	52.1000 
607.129	0.3560	-0.0566	0.8052	5.2490	13.8550	13.5498	-1.5601	-23.0658	88.4290	52.1000 
607.129	0.3726	-0.0186	0.8452	3.6011	10.6201	10.6201	-1.5710	-22.9504	88.4949	52.0000 
607.129	0.3755	-0.0054	0.8594	1.7090	5.2490	7.7515	-1.5765	-22.8900	88.5223	52.1000 
607.129	0.3638	-0.0269	0.8672	0.0000	1.4648	7.0801	-1.6040	-22.8625	88.5498	52.1000 
607.129	0.3398	-0.0620	0.8506	-1.8311	-1.0986	4.2114	-1.6479	-22.8625	88.5608	52.1400 
607.145	0.3223	-0.1050	0.8403	-3.9673	-3.5400	-1.5869	-1.7084	-22.8790	88.5333	52.2900 
607.145	0.3027	-0.0811	0.8140	-6.1646	-4.6997	-5.4321	-1.7633	-22.9065	88.4509	52.1900 
607.145	0.3076	-0.1387	0.7793	-8.1787	-5.3101	-10.9863	-1.8457	-22.9559	88.3575	52.1900 
607.176	0.2881	-0.1138	0.7432	-10.3149	-4.9438	-14.4043	-1.9281	-22.9999	88.2092	52.1000 
607.176	0.2793	-0.1128	0.7114	-11.9629	-4.3335	-18.3716	-2.0160	-23.0383	88.0280	52.2900 
607.176	0.2739	-0.0938	0.6943	-13.6108	-2.0142	-22.5220	-2.0929	-23.0603	87.7972	52.1000 
607.192	0.2622	-0.0728	0.6890	-14.9536	-1.3428	-26.1230	-2.1588	-23.0713	87.5116	52.2900 
607.207	0.2573	-0.0522	0.6846	-15.8081	-1.4648	-30.3345	-2.2028	-23.0823	87.1710	52.1000 
607.207	0.2671	-0.0249	0.6895	-16.5405	-2.5635	-34.9731	-2.2247	-23.1042	86.7700	52.1400 
607.207	0.2837	-0.0107	0.7046	-17.0288	-4.9438	-38.4521	-2.2247	-23.1537	86.3141	52.1900 
607.223	0.2900	0.0225	0.7280	-17.8833	-7.3853	-41.0156	-2.2083	-23.2306	85.8197	52.0000 
607.223	0.2935	0.0137	0.7500	-18.8599	-11.5356	-42.1753	-2.1918	-23.3459	85.3088	52.2900 
607.223	0.3037	-0.0132	0.7549	-19.7144	-15.1978	-44.9829	-2.1863	-23.4998	84.7925	52.1000 
607.254	0.3252	-0.0635	0.7461	-20.8130	-17.1509	-49.3774	-2.1973	-23.6810	84.2596	52.3400 
607.317	0.3555	-0.0986	0.7559	-21.6064	-20.2026	-57.3120	-2.2083	-23.9008	83.6884	51.8600 
607.317	0.3823	-0.0732	0.7441	-22.8271	-22.6440	-59.6313	-2.1918	-24.1589	83.0566	51.8100 
607.317	0.4033	-0.0308	0.7241	-23.5596	-26.6724	-59.0210	-2.1643	-24.4611	82.4084	52.1000 
607.348	0.4155	-0.0527	0.7056	-24.3530	-30.3955	-56.3965	-2.1588	-24.8071	81.7987	51.8600 
607.348	0.4038	-0.0171	0.6904	-24.4141	-34.4849	-55.5420	-2.1533	-25.1971	81.1945	52.0000 
607.348	0.3970	0.0073	0.6831	-23.9258	-36.8042	-52.0630	-2.1368	-25.6036	80.6122	52.2900 
607.348	0.3813	0.0562	0.6758	-22.8882	-37.3535	-49.7437	-2.1039	-26.0211	80.0354	52.1000 
607.348	0.3804	0.1045	0.6758	-20.7520	-36.0107	-46.6919	-2.0325	-26.4276	79.4641	52.1000 
607.348	0.4102	0.1538	0.7056	-17.8223	-35.8276	-44.3726	-1.9226	-26.8231	78.8983	52.1000 
607.379	0.4556	0.2075	0.7485	-13.7939	-35.3394	-40.3442	-1.7743	-27.2186	78.3600	52.1900 
607.379	0.5176	0.2446	0.7837	-9.8877	-33.8745	-35.5225	-1.5875	-27.6141	77.8601	52.0000 
607.379	0.5625	0.2954	0.8301	-5.0659	-32.4707	-29.9683	-1.3788	-27.9932	77.4152	52.0000 
607.395	0.6021	0.2881	0.8999	-0.1831	-35.7056	-24.6582	-1.1481	-28.3887	77.0361	51.9500 
607.411	0.6265	0.2646	0.8843	4.6997	-38.1470	-20.0806	-0.9009	-28.8116	76.7175	52.1000 
607.411	0.6279	0.2300	0.8721	8.1787	-41.5649	-15.2588	-0.6537	-29.2621	76.4648	51.9500 
607.411	0.5962	0.1909	0.8071	11.1084	-45.7153	-10.3149	-0.4065	-29.7510	76.2726	51.9500 
607.426	0.5327	0.1274	0.7007	12.8784	-47.9126	-3.8452	-0.1923	-30.2673	76.1627	52.0000 
607.426	0.4668	0.0732	0.5728	14.7705	-44.6777	0.2441	0.0000	-30.7727	76.1243	52.0000 
607.426	0.4219	0.0371	0.4712	15.9302	-37.2314	2.5635	0.1648	-31.2231	76.1353	52.1000 
607.457	0.4146	0.0225	0.3931	17.8223	-26.1841	1.0376	0.3461	-31.5967	76.1462	52.0000 
607.457	0.4175	0.0396	0.3779	20.5688	-15.8081	0.9155	0.5603	-31.8768	76.1462	52.0000 
607.489	0.3018	0.0156	0.5327	23.4985	-12.1460	11.7188	0.7581	-32.0306	76.2286	52.1000 
607.489	0.1479	-0.2617	0.7173	21.9116	-21.6064	4.0894	0.8185	-32.1350	76.4594	52.1000 
607.520	0.2378	-0.3677	0.7583	18.3105	-9.2163	-29.4800	0.9393	-32.2119	76.4539	52.1000 
607.520	0.3618	-0.1387	1.0391	10.7422	16.2354	-30.3345	1.1755	-32.0361	76.1682	52.0000 
607.520	0.3794	-0.0806	1.3457	2.6245	28.0151	-8.9111	1.2744	-31.6846	76.0254	52.1000 
607.551	0.3428	-0.1758	1.5269	-4.4556	42.8467	5.0659	1.1700	-31.1902	76.1133	52.1900 
607.551	0.2344	-0.1646	1.5073	-4.6387	55.2979	5.7983	1.0217	-30.5420	76.2451	52.1000 
607.567	0.2456	-0.1729	1.4521	-2.0752	70.2515	9.6436	0.8844	-29.7565	76.4044	52.1400 
607.567	0.3203	-0.2817	1.6655	-0.9155	83.4351	3.7231	0.7581	-28.8446	76.5637	52.1400 
607.567	0.4321	-0.3198	1.9482	-1.6479	80.3223	-18.0054	0.7251	-27.9272	76.5198	52.1000 
607.582	0.6182	-0.2144	1.9263	-2.8687	65.3687	-36.9263	0.8130	-27.1692	76.2122	51.9500 
607.582	0.8188	-0.0234	1.6279	-3.0518	43.7622	-28.8696	0.9229	-26.6583	75.8771	51.8600 
607.582	0.8701	-0.0146	1.3711	-3.9673	34.9731	-9.7046	0.9448	-26.3287	75.7452	51.8600 
607.629	0.7651	-0.0762	1.3071	-3.9673	29.5410	-2.3804	0.9009	-26.0486	75.7397	51.9500 
607.629	0.6436	-0.1157	1.3086	-3.4790	20.0195	-10.9253	0.8679	-25.8344	75.6958	51.9500 
607.645	0.5576	-0.1035	1.2651	-2.1973	9.8267	-23.3765	0.9009	-25.7025	75.5145	52.0000 
607.645	0.5264	-0.0498	1.1626	-1.0986	2.2583	-30.0293	1.0052	-25.6476	75.2289	52.0000 
607.645	0.5220	-0.0176	1.0454	-0.6104	1.7700	-33.1421	1.1426	-25.6311	74.8828	52.2900 
607.661	0.5186	0.0078	0.9775	-1.4648	2.3804	-31.9824	1.2799	-25.6146	74.5422	52.1900 
607.661	0.5093	0.0317	0.9033	-3.2349	3.0518	-27.4048	1.3898	-25.5981	74.2346	52.1400 
607.661	0.5010	0.0366	0.8696	-4.8828	2.1362	-22.5830	1.4612	-25.5927	73.9819	52.0000 
607.692	0.4990	0.0337	0.8330	-6.5308	-1.2207	-20.2637	1.5051	-25.6256	73.7677	51.8600 
607.723	0.4780	0.0645	0.7773	-7.3853	-6.0425	-17.3950	1.5381	-25.7025	73.5590	52.0000 
607.723	0.4531	0.1167	0.7119	-6.9580	-10.1318	-14.8926	1.5765	-25.8289	73.3667	52.0000 
607.739	0.4092	0.1411	0.6445	-5.6763	-13.7939	-9.2773	1.6260	-25.9937	73.2129	52.1000 
607.771	0.3354	0.1670	0.6094	-2.9297	-15.1367	-1.8311	1.6864	-26.1639	73.1085	51.7600 
607.771	0.2427	0.1626	0.5879	1.2817	-14.2822	5.6763	1.7523	-26.3068	73.0701	52.1000 
607.771	0.1494	0.1528	0.5488	5.1270	-10.0098	11.9019	1.8402	-26.3727	73.0811	51.9500 
607.771	0.0957	0.1353	0.5156	9.3994	-1.8921	15.8081	1.9501	-26.3397	73.1195	52.1000 
607.771	0.0884	0.1235	0.5073	12.9395	9.5825	19.1040	2.0709	-26.1914	73.2074	51.8600 
607.771	0.1201	0.0830	0.5522	15.6250	20.8740	22.6440	2.1753	-25.9332	73.3722	51.8100 
607.802	0.1641	0.0405	0.6470	16.7236	25.3906	25.9399	2.2357	-25.6201	73.6249	51.8100 
607.802	0.2314	-0.0059	0.7388	16.3574	21.9727	26.8555	2.2577	-25.3455	73.9435	52.0000 
607.802	0.3218	-0.0303	0.8105	15.3809	14.4653	26.9165	2.2577	-25.1697	74.2731	52.1000 
607.833	0.4199	-0.0444	0.8755	13.4888	5.4321	28.9917	2.2357	-25.0983	74.6246	52.1400 
607.833	0.4995	-0.0742	0.9199	12.3291	-8.1787	33.1421	2.1753	-25.1752	75.0201	52.1000 
607.864	0.5391	-0.0991	0.9219	11.3525	-23.6816	37.9639	2.0764	-25.4169	75.4651	51.8600 
607.864	0.5474	-0.1250	0.8735	10.8643	-36.8652	41.1987	1.9446	-25.8069	75.9595	52.0000 
607.864	0.5269	-0.1455	0.8047	10.9863	-46.0815	41.1987	1.7963	-26.3068	76.4703	52.0000 
607.895	0.5044	-0.1719	0.7480	11.2305	-50.5371	38.6963	1.6425	-26.8616	76.9702	51.8600 
607.895	0.5005	-0.2041	0.6753	11.2305	-50.6592	33.0200	1.4996	-27.4384	77.4371	52.1000 
607.895	0.4795	-0.2148	0.6343	10.3149	-47.8516	28.2593	1.3513	-27.9932	77.8546	51.8100 
607.895	0.4795	-0.2476	0.6123	8.3008	-46.6309	22.9492	1.1920	-28.5315	78.2391	52.1000 
607.895	0.4697	-0.2295	0.5596	4.9438	-42.7856	18.9209	1.0327	-29.0479	78.5687	52.0000 
607.926	0.4272	-0.1704	0.5239	1.5259	-38.5742	20.7520	0.8459	-29.5148	78.8873	52.0000 
607.958	0.3647	-0.1191	0.4702	-1.2817	-31.5552	23.7427	0.6207	-29.9048	79.2279	52.0000 
607.958	0.2871	-0.0532	0.4043	-3.2349	-23.4985	28.9307	0.3845	-30.2014	79.5905	51.9500 
607.958	0.2344	-0.0195	0.3228	-3.4180	-15.6860	33.3862	0.1318	-30.4156	79.9860	52.1000 
607.958	0.2124	0.0513	0.2368	-2.8076	-6.4697	35.6445	-0.0659	-30.5640	80.3540	51.7600 
607.989	0.1548	0.2256	0.2080	-0.9155	3.9673	41.1987	-0.1099	-30.6244	80.6177	51.8600 
607.989	-0.0356	0.4063	0.3794	-0.1221	7.6294	63.3545	-0.0769	-30.5310	80.8978	52.0000 
608.021	-0.0913	0.1650	0.4185	0.2441	3.7231	59.9365	-0.1538	-30.3717	81.2219	51.8600 
608.021	0.0977	0.1245	0.5952	2.1362	32.0435	22.2168	-0.1923	-29.9982	81.3647	51.8600 
608.021	0.3843	0.1294	1.0601	3.4790	49.6826	-5.6152	-0.0934	-29.4708	81.2549	52.0000 
608.021	0.7788	0.0684	1.5732	7.4463	49.0112	-27.1606	0.1099	-28.9545	80.9473	51.8100 
608.021	0.9609	0.0620	2.0776	13.3057	48.6450	-23.4375	0.3845	-28.4436	80.6067	51.8600 
608.083	0.7573	-0.1123	2.3257	11.9629	32.5317	3.4790	0.5219	-28.0151	80.5518	51.8100 
608.083	0.5518	-0.2695	2.0796	8.1177	4.4556	16.1743	0.4889	-27.8339	80.7385	52.1400 
608.083	0.4990	-0.2817	1.5420	1.8921	-7.3242	13.6719	0.3735	-27.8229	80.9583	52.1400 
608.083	0.6406	-0.1982	1.1631	-2.5024	15.3198	-0.2441	0.2747	-27.7350	81.0516	52.0000 
608.083	0.8232	-0.0132	1.3350	-4.3945	33.0811	-5.0049	0.2417	-27.4493	80.9967	52.1000 
608.114	0.9565	0.0557	1.5762	-1.3428	23.4375	-1.8311	0.2362	-27.2076	80.9363	52.0000 
608.129	0.9707	0.0977	1.5239	6.2256	6.2256	1.2207	0.2911	-27.1307	80.9033	51.8100 
608.161	0.8682	0.1294	1.2876	14.0991	-1.2207	5.8594	0.4120	-27.1747	80.9143	51.9500 
608.161	0.7378	0.1709	1.0879	16.9067	1.7700	11.9019	0.5658	-27.2131	80.9692	51.7600 
608.161	0.6206	0.1777	1.0098	15.7471	6.2256	16.2354	0.6976	-27.1967	81.0626	52.0000 
608.161	0.5386	0.1143	0.9644	13.3057	8.2397	14.5874	0.7965	-27.1362	81.1725	52.1000 
608.161	0.5112	0.0518	0.9351	11.0474	6.8359	8.8501	0.8734	-27.0758	81.2384	51.7600 
608.161	0.5166	-0.0146	0.8711	9.3994	3.4790	3.7231	0.9393	-27.0483	81.2769	51.8100 
608.192	0.5464	-0.0513	0.8145	7.4463	-1.0376	-0.2441	0.9888	-27.0868	81.2823	52.1000 
608.192	0.5850	-0.0698	0.7720	5.9814	-3.8452	-2.6855	1.0327	-27.1692	81.2659	51.8100 
608.223	0.6104	-0.0635	0.7534	3.9673	-6.3477	-1.9531	1.0547	-27.2955	81.2494	51.8100 
608.223	0.5840	-0.0557	0.7246	2.1973	-9.2163	0.1831	1.0547	-27.4548	81.2549	51.8100 
608.223	0.5205	-0.0757	0.7124	-0.7324	-11.5967	-0.3052	1.0162	-27.6196	81.2659	52.0000 
608.239	0.4297	-0.0708	0.6875	-3.0518	-14.0991	-0.6714	0.9613	-27.7844	81.2659	52.1000 
608.239	0.3354	-0.0820	0.6416	-4.8828	-16.9067	-4.3945	0.8899	-27.9492	81.2549	51.9500 
608.239	0.2690	-0.0601	0.5566	-6.7139	-16.3574	-8.7280	0.8240	-28.1085	81.1835	52.0000 
608.270	0.2437	-0.0151	0.4893	-8.4839	-11.7188	-14.4653	0.7910	-28.2239	81.0352	51.9500 
608.270	0.2539	-0.0054	0.4443	-9.8267	-4.6997	-18.5547	0.7800	-28.2843	80.8154	52.0000 
608.270	0.2788	0.0103	0.4663	-10.0708	1.5259	-25.5127	0.7965	-28.2953	80.5353	51.8100 
608.286	0.3184	0.0303	0.5342	-10.0708	5.1880	-28.7476	0.8624	-28.2623	80.1837	51.8600 
608.301	0.3599	0.0557	0.6182	-8.9111	3.6011	-31.3721	0.9558	-28.2294	79.7937	52.0000 
608.301	0.3896	0.0889	0.6909	-7.5684	-2.5635	-32.1655	1.0822	-28.2404	79.3707	51.8100 
608.301	0.4004	0.1479	0.7168	-6.5308	-11.8408	-34.3628	1.2469	-28.3392	78.9148	51.8600 
608.332	0.4043	0.1577	0.6870	-4.4556	-18.9209	-30.2734	1.4337	-28.5150	78.4753	51.8100 
608.364	0.3745	0.1499	0.5894	-2.3804	-23.9868	-25.1465	1.6260	-28.7622	78.0798	51.8600 
608.364	0.2925	0.0869	0.4800	-1.0986	-25.5127	-20.4468	1.7908	-29.0259	77.7612	51.8600 
608.364	0.1929	0.0049	0.3696	-0.6714	-25.6348	-18.4937	1.9116	-29.2731	77.5031	52.0000 
608.379	0.1074	-0.0469	0.2432	-0.3662	-22.6440	-18.4937	1.9446	-29.4818	77.3492	51.9500 
608.379	-0.0610	-0.1084	0.2441	-1.4648	-15.5640	-7.8125	1.7853	-29.5422	77.5085	51.8600 
608.379	-0.2192	-0.3687	0.2803	-4.6387	-17.0288	-19.8364	1.3623	-29.7070	77.9755	52.1900 
608.379	-0.0845	-0.3633	0.1997	-1.5869	7.7515	-50.3540	1.1041	-29.7839	78.0359	51.7600 
608.395	0.0425	-0.1406	0.5640	-5.7373	40.7715	-49.6826	1.1316	-29.3225	77.7173	51.7600 
608.411	0.1978	-0.1348	0.9785	-8.0566	47.4243	-47.9736	1.2415	-28.7402	77.2504	51.7600 
608.411	0.5176	-0.0859	1.3916	-10.7422	60.5469	-56.3354	1.3898	-28.1030	76.6846	51.8600 
608.443	0.8252	0.0615	2.1245	-13.9771	81.4209	-53.7109	1.5271	-27.2900	76.0748	51.8100 
608.443	0.9478	0.2417	2.7954	-9.7046	69.0308	-38.8794	1.6370	-26.4771	75.5969	51.8600 
608.474	1.0034	0.5049	2.6362	0.0000	0.3662	-13.6108	1.7798	-26.2628	75.2893	51.5700 
608.474	1.0146	0.3164	1.9590	4.3335	-28.3813	23.8037	1.7963	-26.5155	75.3882	51.8100 
608.474	0.8374	-0.0425	1.8149	1.7090	-10.6812	33.2642	1.6589	-26.6803	75.7452	51.8100 
608.505	0.7285	-0.2456	2.0024	-3.4790	-13.7939	16.7236	1.4777	-26.7572	76.0364	51.5700 
608.505	0.7881	-0.2334	1.6597	-5.0049	-29.3579	-5.9204	1.3788	-27.0099	76.0803	51.8600 
608.505	0.9224	-0.0957	1.1650	-5.8594	-10.7422	-9.8267	1.3403	-27.2296	76.0089	51.7600 
608.551	0.9697	-0.0146	1.0239	-7.2021	11.9629	2.6245	1.2634	-27.2461	76.0199	51.8600 
608.551	0.8662	0.0024	1.0571	-7.6294	12.0850	14.4043	1.1206	-27.1967	76.1737	51.7600 
608.567	0.6182	-0.0298	1.0522	-5.0659	-2.5024	16.4185	0.9668	-27.2186	76.3770	51.8600 
608.598	0.4102	-0.1143	0.9390	-0.3662	-18.5547	4.6997	0.8679	-27.3560	76.5143	51.7600 
608.598	0.3389	-0.1182	0.7480	4.5776	-25.8789	-15.6250	0.9009	-27.5812	76.4594	51.8600 
608.598	0.3901	-0.0835	0.5688	7.2021	-23.1934	-35.8887	1.0767	-27.8503	76.1682	51.7600 
608.598	0.4668	0.0132	0.4766	6.1646	-12.6953	-40.2832	1.3458	-28.0811	75.7288	51.8100 
608.598	0.4951	0.1079	0.4878	3.3569	-5.1270	-30.8838	1.6205	-28.2404	75.3168	51.6700 
608.598	0.4619	0.1040	0.5479	-0.4272	-1.8311	-18.8599	1.7853	-28.3392	75.0421	52.0000 
608.598	0.3682	0.1001	0.6167	-4.2725	-3.8452	-6.6528	1.8512	-28.3887	74.8993	52.0000 
608.614	0.2910	0.0771	0.6460	-6.8970	-10.9253	2.0142	1.8237	-28.4601	74.8718	51.9500 
608.614	0.2363	0.0728	0.6318	-8.5449	-18.8599	6.9580	1.7413	-28.5864	74.8938	51.8100 
608.614	0.2192	0.1006	0.5771	-8.5449	-21.1182	10.6812	1.6534	-28.7512	74.9432	51.9500 
608.661	0.2153	0.1431	0.5322	-6.7749	-21.6064	16.8457	1.5875	-28.9325	75.0256	52.0000 
608.661	0.2192	0.1597	0.4966	-3.6621	-19.9585	25.8789	1.5161	-29.1138	75.1849	51.7600 
608.661	0.2104	0.1392	0.4810	-0.5493	-18.7988	34.3018	1.4227	-29.2841	75.4541	51.8100 
608.692	0.1943	0.1138	0.4829	1.4038	-19.2261	38.5132	1.3074	-29.4489	75.7892	51.8600 
608.692	0.2085	0.0552	0.5015	2.4414	-20.9961	40.6494	1.1536	-29.6191	76.1957	51.6200 
608.692	0.2437	-0.0229	0.4922	3.4790	-22.2778	39.4287	0.9558	-29.8169	76.6571	51.6700 
608.708	0.2808	-0.0664	0.4980	3.0518	-20.4468	39.4287	0.7141	-30.0311	77.1515	51.8600 
608.708	0.2856	-0.1187	0.5142	2.5635	-19.1040	42.1143	0.4285	-30.2289	77.7118	51.5700 
608.708	0.2910	-0.1636	0.5000	2.7466	-17.2119	43.7622	0.0989	-30.4156	78.3270	51.8100 
608.723	0.2910	-0.1758	0.4731	3.8452	-13.9771	46.3867	-0.2472	-30.5750	78.9752	51.8100 
608.770	0.2651	-0.1729	0.4424	5.3101	-13.7329	50.4150	-0.6152	-30.7178	79.6783	51.8600 
608.770	0.2402	-0.1694	0.3643	6.9580	-13.8550	51.6357	-0.9943	-30.8716	80.4199	52.0000 
608.770	0.1973	-0.0684	0.2773	10.4370	-11.7188	52.6733	-1.3074	-31.0144	81.1285	51.8600 
608.770	0.1152	0.0967	0.2427	12.6343	-8.7280	57.1899	-1.4447	-31.0913	81.6833	51.8100 
608.801	-0.0420	0.3130	0.3037	12.0850	-4.2725	68.4204	-1.3513	-31.0858	82.0569	51.8600 
608.801	-0.0410	0.1235	0.2964	11.9629	0.0000	60.6689	-1.3239	-30.9760	82.4194	51.8100 
608.801	0.1846	0.1802	0.5366	13.7329	37.8418	31.3721	-1.2634	-30.6189	82.6447	51.9500 
608.833	0.5044	0.1865	1.1553	17.2729	63.1714	6.4087	-1.0822	-30.0037	82.6556	51.8100 
608.833	0.9966	0.1587	1.8789	17.8223	72.9980	-18.3105	-0.7800	-29.2786	82.4249	51.8100 
608.833	1.1245	0.2280	2.3076	16.6016	65.9180	0.4883	-0.5273	-28.5754	82.2656	51.8100 
608.848	0.9336	0.0420	2.0923	16.8457	30.0903	29.7852	-0.4669	-28.1580	82.4744	51.8100 
608.864	0.7178	-0.1367	1.6230	11.1694	19.4092	45.1660	-0.5713	-27.9327	82.9413	51.8600 
608.864	0.6621	-0.3721	1.3511	3.9063	25.8179	39.8560	-0.8130	-27.6746	83.4741	51.8100 
608.864	0.7661	-0.2783	1.3296	-0.0610	35.7666	20.2637	-1.0107	-27.3560	83.8037	51.8100 
608.879	0.9434	-0.1143	1.8262	-3.4790	36.0107	13.7329	-1.1371	-26.9824	83.9575	51.8100 
608.879	1.1162	-0.1826	2.2217	-0.9155	10.2539	5.1880	-1.2085	-26.8011	84.0289	51.6200 
608.911	1.1484	-0.0225	1.8838	5.9814	-12.0850	1.1597	-1.1810	-26.9000	84.0234	52.0000 
608.911	1.0298	0.1519	1.3848	10.5591	-9.9487	10.6201	-1.0931	-27.0703	84.0509	51.8100 
608.911	0.8633	0.2007	1.1704	11.2305	4.0894	20.0806	-1.0272	-27.1198	84.1827	51.6200 
608.926	0.7612	0.2090	1.1133	10.3760	8.9722	23.8037	-0.9778	-27.0813	84.3475	51.8100 
608.926	0.6475	0.1738	1.0737	8.6060	1.3428	22.9492	-0.9448	-27.0758	84.5178	51.7600 
608.958	0.5098	0.1089	0.9463	6.5308	-8.4839	22.1558	-0.9393	-27.1472	84.6826	51.7600 
608.989	0.4009	0.0078	0.8052	3.8452	-10.2539	16.8457	-0.9723	-27.2461	84.8364	51.7600 
608.989	0.3823	-0.0605	0.6938	1.5259	-6.2866	9.3384	-1.0272	-27.3230	84.9463	51.6200 
608.989	0.4434	-0.0474	0.6606	1.0986	-1.4038	5.9204	-1.0712	-27.3779	85.0012	51.8100 
609.021	0.5020	-0.0127	0.6548	2.0142	0.8545	7.0801	-1.0986	-27.4329	85.0507	51.6700 
609.021	0.5308	-0.0122	0.6567	2.8687	0.3052	9.2773	-1.1206	-27.4878	85.1276	51.7600 
609.021	0.4873	-0.0029	0.6650	3.1128	-2.0752	11.1084	-1.1426	-27.5537	85.2100	51.7600 
609.052	0.4219	0.0034	0.6602	2.0752	-7.0801	9.8877	-1.1646	-27.6471	85.2869	51.8600 
609.052	0.3452	-0.0020	0.6299	-0.1831	-13.6108	6.1035	-1.1975	-27.7734	85.3253	51.8600 
609.052	0.2847	0.0034	0.5850	-2.1362	-20.6299	3.0518	-1.2305	-27.9547	85.3253	51.6200 
609.052	0.2329	-0.0161	0.5083	-4.5776	-25.4517	-1.9531	-1.2689	-28.1799	85.2814	51.8600 
609.083	0.1846	-0.0137	0.4209	-6.1035	-26.3062	-7.1411	-1.2964	-28.4216	85.1825	51.6700 
609.083	0.1416	-0.0269	0.3687	-7.2021	-24.5972	-11.5967	-1.3184	-28.6304	85.0342	51.6700 
609.083	0.0981	-0.0581	0.3218	-7.7515	-20.9351	-18.3716	-1.3513	-28.7897	84.8694	51.6700 
609.114	0.0962	-0.0840	0.2783	-7.5073	-16.0522	-28.6255	-1.3843	-28.9105	84.6552	51.6700 
609.114	0.1064	-0.0679	0.2705	-6.8970	-10.3149	-36.8652	-1.3568	-28.9929	84.3365	52.0000 
609.129	0.1011	-0.0303	0.2827	-5.5542	-8.1177	-39.9170	-1.2360	-29.0259	83.8971	51.7600 
609.161	0.1069	-0.0166	0.2500	-3.5400	-7.2021	-42.9688	-1.0657	-29.0698	83.4082	51.8100 
609.161	0.1357	0.0088	0.1987	-1.7700	-5.6152	-45.7764	-0.8295	-29.1467	82.8644	51.7600 
609.161	0.1699	0.0542	0.1558	-0.5493	-3.9063	-47.8516	-0.5109	-29.2841	82.2491	51.8100 
609.193	0.1519	0.0708	0.1455	0.1221	-2.6245	-40.2222	-0.1483	-29.4324	81.6394	51.6700 
609.193	-0.0894	-0.0967	0.3403	-3.2959	-4.3335	-20.3857	-0.0549	-29.3060	81.3922	51.8100 
609.193	-0.1704	-0.4253	0.2993	-10.2539	-16.0522	-50.4761	-0.3461	-29.4269	81.4856	51.6700 
609.193	0.0205	-0.4258	0.3711	-14.2212	10.6812	-76.1108	-0.4669	-29.4269	81.1066	51.5700 
609.224	0.2100	-0.2612	0.7803	-21.2402	35.4614	-84.2285	-0.3790	-29.0753	80.3595	51.7600 
609.224	0.5786	-0.1201	1.2515	-26.8555	59.3872	-88.6841	-0.2087	-28.5095	79.4092	51.5700 
609.255	0.9873	0.0557	1.9380	-28.3813	83.6792	-68.2983	-0.0934	-27.7295	78.5522	51.8100 
609.255	1.1333	0.1968	2.7446	-22.8882	104.1260	-53.7720	-0.0165	-26.6968	77.8876	51.6700 
609.255	1.0547	0.4170	2.9473	-9.1553	50.9644	-23.4375	0.0494	-25.9882	77.4756	51.7600 
609.255	0.9614	0.2329	2.7109	-1.4648	4.8218	10.0098	0.0494	-25.8179	77.4646	51.9500 
609.255	0.7988	-0.0767	2.5703	-1.3428	-16.8457	8.6060	-0.0055	-25.8838	77.5800	51.7600 
609.255	0.7510	-0.1953	2.1118	-2.9297	-48.1567	-2.1362	-0.0714	-26.2408	77.6239	51.8600 
609.286	0.8579	-0.1294	1.3091	-6.8970	-42.0532	-13.1226	-0.1099	-26.7352	77.5415	51.9500 
609.286	0.8804	-0.0288	0.9600	-12.3901	-4.0894	-5.1270	-0.1868	-26.9495	77.4811	51.8100 
609.286	0.8022	-0.0054	0.9648	-15.1367	14.4043	4.7607	-0.3461	-26.9220	77.5250	51.5700 
609.301	0.6519	-0.0400	1.0088	-13.2446	5.7983	5.9204	-0.5219	-26.8726	77.6184	51.4300 
609.317	0.4834	-0.0664	0.9341	-8.5449	-13.2446	-5.3711	-0.6262	-26.9659	77.6239	51.8100 
609.317	0.4033	-0.0913	0.7607	-2.8076	-28.6255	-16.5405	-0.6317	-27.2241	77.5140	51.6700 
609.317	0.3999	-0.1606	0.5728	2.5024	-30.5786	-27.0996	-0.5658	-27.5757	77.3273	51.5700 
609.364	0.3950	-0.1328	0.4482	5.0049	-22.1558	-37.9639	-0.4120	-27.8998	77.0142	51.6200 
609.364	0.4307	-0.0991	0.4380	4.8828	-8.6670	-46.7529	-0.1868	-28.1195	76.5912	51.5700 
609.379	0.4966	-0.0327	0.5156	1.9531	-0.1831	-46.7529	0.0659	-28.2294	76.0968	51.6200 
609.411	0.5479	0.0049	0.6587	-1.6479	2.5635	-42.0532	0.2911	-28.2788	75.6299	51.6200 
609.411	0.5596	0.0874	0.8418	-4.3945	-4.1504	-30.1514	0.4559	-28.3392	75.2563	51.7600 
609.411	0.5229	0.1460	0.9751	-6.7139	-17.9443	-17.3340	0.5493	-28.4875	75.0037	51.6700 
609.411	0.4595	0.1812	1.0479	-8.9111	-32.8979	-5.3711	0.5603	-28.7567	74.8718	51.6200 
609.427	0.4092	0.1904	1.0400	-9.2773	-45.8374	4.6997	0.5219	-29.1412	74.8499	51.7600 
609.427	0.3896	0.1802	0.9419	-7.8125	-53.3447	11.7188	0.4559	-29.6191	74.9048	51.6200 
609.458	0.3838	0.1152	0.7881	-4.7607	-54.9316	19.6533	0.3571	-30.1410	75.0641	51.5700 
609.458	0.3882	0.0337	0.6577	-2.3193	-51.3306	24.6582	0.2142	-30.6573	75.3333	51.4700 
609.489	0.3755	-0.0132	0.5645	0.0610	-49.1333	28.3813	0.0439	-31.1627	75.6738	51.6700 
609.505	0.3540	-0.0425	0.4912	2.9907	-46.9360	30.9448	-0.1373	-31.6626	76.0693	51.6200 
609.505	0.3110	-0.0405	0.4360	5.1270	-46.2646	35.5835	-0.3351	-32.1460	76.5253	51.4300 
609.505	0.2617	-0.0630	0.3667	7.1411	-46.2036	39.3677	-0.5548	-32.6184	77.0416	51.6200 
609.505	0.2183	-0.0688	0.2891	9.2773	-41.9312	42.7856	-0.8130	-33.0688	77.6239	51.5700 
609.521	0.1538	-0.0879	0.2168	12.6343	-35.9497	48.7671	-1.1151	-33.4644	78.3105	51.7600 
609.521	0.0820	-0.1147	0.1211	15.9912	-29.7852	52.1851	-1.5326	-33.7939	79.1565	51.6200 
609.521	0.0327	-0.1299	0.0151	19.5923	-20.2026	53.1616	-2.1204	-34.1235	80.1672	51.6700 
609.521	-0.0161	-0.0522	-0.0967	22.7051	-5.7983	52.8564	-2.9333	-34.4202	81.1890	51.6200 
609.567	-0.0762	0.0967	-0.1787	24.9634	11.6577	56.8237	-2.2522	-34.2719	81.4911	51.6700 
609.567	-0.1807	0.4131	-0.1289	24.0479	37.5366	67.1387	-1.6864	-33.9697	81.7877	51.6200 
609.567	-0.2109	0.3276	0.0195	15.6250	51.9409	67.6880	-1.3074	-33.4424	82.0898	51.6700 
609.599	0.0459	0.2412	0.2065	10.8643	93.2007	30.7007	-0.9778	-32.5964	82.1338	51.6700 
609.599	0.4136	0.2212	0.8042	6.3477	123.5962	3.6621	-0.8185	-31.3989	82.0789	51.5700 
609.599	0.8892	0.2427	1.5225	4.6997	133.7891	-12.8784	-0.6317	-30.0751	81.8701	51.6700 
609.599	1.3687	0.3188	2.3149	3.9673	91.6138	-9.0332	-0.4724	-29.0259	81.6614	51.5700 
609.630	1.1201	0.2012	2.5605	3.6011	70.8618	28.5034	-0.4834	-28.3008	81.8042	51.5700 
609.630	0.6978	-0.2715	2.6069	-11.9019	81.2988	54.1992	-0.8295	-27.4164	82.3425	51.6700 
609.630	0.4038	-0.5200	2.2759	-11.1084	29.2969	72.2656	-1.3733	-26.8561	83.1665	51.6200 
609.676	0.3745	-0.6812	1.7236	-9.0332	-20.6299	46.4478	-1.8787	-26.8726	83.9191	51.5700 
609.676	0.5684	-0.5581	1.2734	-6.1035	-26.2451	-0.1221	-2.1533	-27.1088	84.1772	51.5700 
609.676	0.8779	-0.2627	0.9761	-3.0518	-14.5874	-21.2402	-2.1863	-27.3560	84.0509	51.6700 
609.676	1.0215	-0.0415	1.0190	1.5259	-8.4229	-8.1787	-2.1259	-27.5592	83.9026	51.6700 
609.692	0.9961	-0.0420	1.0400	5.1270	-3.7231	8.2397	-2.1149	-27.7130	83.9520	51.5700 
609.692	0.8574	-0.0166	1.1089	7.0190	5.1270	11.1694	-2.1039	-27.7460	84.0564	51.4700 
609.708	0.6997	0.0981	1.2148	7.2021	5.4932	10.7422	-2.0544	-27.7075	84.1278	51.5700 
609.708	0.6401	0.1885	1.2607	5.1270	-0.3662	14.0991	-2.0105	-27.6910	84.1937	51.7600 
609.740	0.6362	0.2368	1.2461	4.1504	-5.3101	19.7754	-1.9885	-27.7295	84.3036	51.6200 
609.740	0.6084	0.1992	1.1870	5.7373	-10.2539	21.9116	-1.9830	-27.8174	84.4629	51.9500 
609.740	0.5742	0.1475	1.0894	7.9956	-13.6108	19.4702	-1.9556	-27.9382	84.6167	51.7600 
609.786	0.5581	0.1050	0.9932	9.5215	-15.8691	14.2212	-1.8951	-28.0975	84.7266	51.5700 
609.786	0.5337	0.0952	0.9268	10.6201	-19.1040	11.7188	-1.8182	-28.2898	84.8035	51.4300 
609.786	0.4932	0.0884	0.8760	11.4746	-25.4517	12.0239	-1.7249	-28.5315	84.8859	51.5700 
609.786	0.4395	0.0405	0.7744	11.3525	-31.7993	10.6201	-1.6479	-28.8391	84.9683	51.8100 
609.817	0.4058	-0.0142	0.6543	11.2305	-32.8979	5.6763	-1.5710	-29.1797	85.0287	51.5700 
609.817	0.3916	-0.0723	0.5435	9.9487	-29.4189	0.0000	-1.5051	-29.5148	85.0562	51.7600 
609.817	0.3862	-0.0957	0.4683	8.4839	-26.3672	-5.7373	-1.4502	-29.8389	85.0397	51.4700 
609.849	0.3379	-0.1211	0.4248	6.1646	-27.8931	-9.0332	-1.4063	-30.1630	84.9957	51.6200 
609.849	0.2686	-0.1499	0.3555	3.8452	-32.2266	-12.9395	-1.4117	-30.5200	84.9518	51.5700 
609.880	0.1821	-0.1377	0.2671	2.6245	-36.3770	-17.1509	-1.4282	-30.9100	84.8914	51.5700 
609.880	0.0967	-0.1187	0.1504	2.2583	-39.1235	-20.5688	-1.4886	-31.3220	84.8419	51.7600 
609.880	0.0293	-0.0981	-0.0068	2.3804	-35.0342	-24.6582	-1.7303	-31.8274	84.8859	51.7600 
609.880	-0.0200	-0.0718	-0.1406	2.2583	-23.2544	-27.5879	-2.2302	-32.3328	84.8969	51.6200 
609.880	-0.1206	-0.0889	-0.1489	2.9297	-6.7139	-22.8882	-2.8235	-32.5964	85.0452	51.5700 
609.895	-0.2920	-0.2568	-0.0044	-0.9155	2.1973	-31.1890	-3.3508	-32.6733	85.3802	51.6700 
609.895	-0.2168	-0.3018	-0.0557	-2.0752	22.2778	-57.8613	-3.7134	-32.6349	85.3638	51.5700 
609.911	-0.0859	-0.1548	0.2930	-6.7749	56.8848	-61.1572	-3.7903	-32.0966	85.1056	51.6700 
609.911	0.1050	-0.1230	0.7222	-11.1694	67.5049	-66.4673	-3.5431	-31.3165	84.3805	51.7600 
609.942	0.4644	-0.0347	1.1348	-16.2354	88.2568	-75.1343	-3.2300	-30.4816	83.4686	51.6200 
609.942	0.8301	0.1807	1.9160	-16.6016	118.5913	-70.6177	-2.9004	-29.3774	82.5018	51.5700 
609.942	1.1567	0.1440	3.1040	-16.9067	133.8501	-56.1523	-2.6697	-28.0316	81.7218	51.5700 
609.989	1.1709	0.5020	3.3486	1.0986	42.2974	-31.8604	-2.4170	-27.2845	81.1505	51.4700 
610.020	1.1411	0.4766	2.1411	13.1836	-45.4102	21.9116	-2.2797	-27.5867	81.1890	51.6200 
610.020	0.8677	0.0288	1.4268	10.3149	-28.3203	47.7295	-2.3566	-27.9602	81.6614	51.7600 
610.020	0.7017	-0.4243	1.6597	-1.7090	8.3618	27.6489	-2.5873	-27.9218	82.1283	51.6200 
610.020	0.7139	-0.4868	2.0728	-8.5449	-0.5493	-11.0474	-2.7301	-27.8229	82.1832	51.6700 
610.020	0.8315	-0.2588	1.7388	-7.0190	-29.7241	-26.8555	-2.7246	-28.0481	81.9635	51.6200 
610.020	0.9517	-0.0659	1.1924	-7.8125	-14.3433	-16.4185	-2.7026	-28.3008	81.7603	51.4700 
610.036	0.9590	-0.0034	1.0269	-10.4980	8.1787	-2.5635	-2.7631	-28.3557	81.6943	51.4300 
610.051	0.8047	0.0454	1.0132	-10.0098	8.9111	9.3994	-2.8674	-28.3228	81.7493	51.5700 
610.051	0.5337	-0.0044	0.9800	-4.3335	-6.7139	16.9678	-2.9938	-28.3502	81.9196	51.5700 
610.083	0.3062	-0.0430	0.7876	2.8076	-21.1792	10.9253	-3.0542	-28.4930	82.0789	51.6200 
610.083	0.2144	-0.0474	0.5630	7.9956	-27.0996	-3.7231	-3.0048	-28.7018	82.1118	51.4300 
610.098	0.1987	-0.0444	0.3633	9.5825	-23.6816	-14.8315	-2.8674	-28.9435	82.0074	51.4700 
610.098	0.2188	-0.0146	0.2686	8.0566	-12.8784	-21.0571	-2.6807	-29.1577	81.7987	51.5700 
610.114	0.2661	-0.0010	0.2847	4.3335	-0.4272	-21.3013	-2.4994	-29.2786	81.5625	51.5700 
610.114	0.3008	0.0264	0.4321	-0.0610	8.3618	-14.9536	-2.3676	-29.2731	81.3483	51.5700 
610.130	0.3213	0.0557	0.6353	-3.7231	9.9487	-7.0190	-2.2961	-29.1742	81.2054	51.4700 
610.130	0.3398	0.0996	0.8174	-5.4321	5.1270	1.7090	-2.2852	-29.0753	81.1450	51.3300 
610.161	0.3560	0.1108	0.9575	-5.6763	-7.6904	9.5825	-2.3291	-29.0643	81.1780	51.4300 
610.161	0.3721	0.1050	0.9941	-4.5166	-23.2544	18.1274	-2.4115	-29.2017	81.3153	51.5700 
610.161	0.3740	0.0752	0.9551	-2.8076	-34.6069	25.3296	-2.5378	-29.4708	81.5570	51.8600 
610.192	0.3481	0.0542	0.8477	-0.5493	-40.6494	31.6772	-2.6862	-29.8059	81.8811	51.4300 
610.192	0.3032	0.0356	0.7227	1.8921	-41.9922	39.9780	-2.8619	-30.1630	82.2986	51.4300 
610.192	0.2236	-0.0015	0.5801	4.1504	-41.6260	47.6685	-3.0817	-30.5090	82.8259	51.7600 
610.192	0.1572	-0.0518	0.4629	5.7983	-38.1470	48.8892	-3.3453	-30.8002	83.4247	51.5700 
610.224	0.1357	-0.0713	0.3672	7.8125	-31.8604	43.5181	-3.5925	-31.0364	84.0070	51.6200 
610.224	0.1748	-0.0967	0.3237	8.9111	-24.2920	36.6211	-3.8232	-31.2451	84.5398	51.5700 
610.239	0.2461	-0.1025	0.3213	9.7656	-20.4468	30.5786	-4.0045	-31.4539	85.0012	51.3300 
610.239	0.3296	-0.1172	0.3350	10.6201	-19.2871	27.2217	-4.1528	-31.6956	85.4022	51.6700 
610.239	0.3682	-0.1147	0.3296	10.5591	-22.4609	29.3579	-4.3066	-31.9812	85.8032	51.6200 
610.270	0.3491	-0.0869	0.2710	11.3525	-26.7334	37.5977	-4.4934	-32.3163	86.2866	51.6200 
610.270	0.2593	0.0376	0.1782	13.6719	-25.0244	49.5605	-4.6472	-32.6733	86.8359	51.5700 
610.301	0.1025	0.2529	0.1304	16.5405	-13.7939	60.3027	-4.5758	-32.9205	87.3029	51.5700 
610.301	-0.1396	0.3945	0.2627	14.5264	-3.4180	84.8389	-4.4385	-32.8931	87.7753	51.5700 
610.317	-0.1025	0.1465	0.1963	15.6250	11.3525	68.1152	-4.3121	-32.6843	88.1268	51.2800 
610.317	0.2080	0.2388	0.4492	18.9209	64.4531	27.8931	-4.0869	-32.1185	88.2422	51.6200 
610.317	0.5874	0.3428	0.9985	25.6958	98.4497	5.0659	-3.7244	-31.2122	88.1213	51.4300 
610.333	1.1284	0.2920	1.7227	33.3862	109.8633	-7.6904	-3.2520	-30.1520	87.8741	51.4700 
610.333	1.2065	0.1729	2.3423	31.9824	104.9805	17.3340	-2.8784	-29.0808	87.8137	51.4700 
610.348	0.7100	-0.2002	2.3184	24.3530	65.4907	46.5698	-2.8290	-28.2349	88.2092	51.4300 
610.364	0.4072	-0.2324	1.8110	16.7236	20.9961	42.4805	-2.8894	-27.8229	88.6816	51.5700 
610.395	0.4312	-0.2710	1.5220	1.3428	19.4702	27.9541	-3.0322	-27.5482	89.0387	51.3300 
610.395	0.6172	-0.3862	1.7764	-12.1460	21.3623	19.4702	-3.2849	-27.2681	89.2804	51.6200 
610.395	0.8848	-0.5376	1.8784	-9.1553	11.7798	7.2021	-3.5266	-27.0978	89.4452	51.4300 
610.426	1.1416	-0.3198	1.5483	1.5259	2.3193	-27.8931	-3.4937	-27.1033	89.2310	51.4700 
610.426	1.0767	0.0479	1.2466	10.4370	4.9438	-7.2021	-3.3179	-27.1472	89.0277	51.5700 
610.426	0.8359	0.0864	1.0718	12.3291	3.5400	14.5874	-3.2135	-27.1802	89.0717	51.4700 
610.426	0.6060	0.0747	0.9443	11.7188	5.1270	22.3999	-3.1641	-27.1637	89.2419	51.6700 
610.426	0.4307	0.1055	0.8853	11.1084	6.5308	16.4795	-3.0927	-27.1033	89.3573	51.6700 
610.458	0.3921	0.1533	0.8569	11.1084	3.7231	8.2397	-2.9553	-27.0428	89.3518	51.4700 
610.458	0.4624	0.1943	0.8042	9.4604	1.0986	1.0376	-2.7795	-27.0428	89.2584	51.5700 
610.505	0.5439	0.2275	0.7954	6.8359	-2.5635	-2.4414	-2.5983	-27.1088	89.1156	51.5700 
610.505	0.5947	0.2095	0.7930	3.3569	-7.3853	-2.6855	-2.4500	-27.2406	88.9673	51.4700 
610.505	0.6060	0.1631	0.8101	-0.7324	-12.3291	-2.3193	-2.3621	-27.4164	88.8409	51.6700 
610.505	0.5669	0.0591	0.8345	-6.1646	-18.8599	-2.1362	-2.3621	-27.6361	88.7531	51.4300 
610.536	0.5083	-0.0571	0.8467	-12.2070	-26.6724	-4.0283	-2.4554	-27.9053	88.6816	51.3300 
610.536	0.4326	-0.1748	0.8325	-18.1274	-33.9355	-7.5684	-2.6422	-28.2294	88.6322	51.5700 
610.536	0.3555	-0.2573	0.8149	-22.0947	-40.4663	-15.9912	-2.8784	-28.6029	88.5553	51.6200 
610.551	0.3076	-0.2915	0.7764	-25.0854	-46.6309	-28.3813	-3.1091	-29.0259	88.3795	51.5700 
610.551	0.2891	-0.2871	0.7139	-25.9399	-52.1851	-40.1001	-3.2959	-29.5148	88.0774	51.2800 
610.551	0.3042	-0.2593	0.6279	-25.0854	-55.6030	-51.0254	-3.4113	-30.0641	87.6599	51.5700 
610.567	0.3384	-0.1870	0.5439	-23.6206	-54.0771	-60.5469	-3.4332	-30.6464	87.0996	51.5700 
610.583	0.3389	-0.0752	0.4819	-20.9351	-50.5371	-64.6973	-3.3344	-31.2177	86.4185	51.4300 
610.598	0.2866	0.0415	0.4131	-19.4702	-48.6450	-60.7910	-3.1366	-31.7615	85.6769	51.4300 
610.630	0.2007	0.1016	0.2842	-18.3105	-46.9360	-54.1382	-2.8784	-32.2888	84.9408	51.6200 
610.630	0.1191	0.1362	0.1152	-17.0898	-40.5273	-48.4619	-2.5104	-32.8107	84.1772	51.2300 
610.630	0.0444	0.1328	-0.0537	-15.6250	-29.7241	-41.1987	-1.9006	-33.3435	83.4137	51.4700 
610.630	-0.0884	0.0488	-0.0957	-13.4888	-14.4043	-29.8462	-1.0602	-33.5632	82.6172	51.2800 
610.661	-0.1948	-0.0874	-0.1001	-11.1084	-3.2959	-35.6445	-1.7413	-33.7335	82.8259	51.6200 
610.661	-0.1821	-0.1270	-0.0459	-9.8267	26.1841	-45.6543	-2.2961	-33.6676	82.9358	51.4300 
610.676	-0.1128	-0.1235	0.2681	-9.1553	56.2744	-55.1147	-2.4829	-33.0853	82.8644	51.4300 
610.676	0.0742	-0.1016	0.5933	-9.4604	74.8901	-63.4766	-2.2577	-32.2284	82.1997	51.6700 
610.676	0.3535	0.0166	0.9263	-11.6577	97.4121	-66.6504	-1.9336	-31.2616	81.3757	51.5700 
610.692	0.6479	0.2520	1.3716	-9.8267	117.9199	-53.4058	-1.6150	-30.1135	80.6067	51.5700 
610.692	0.9893	0.4194	1.8516	-4.0283	112.4878	-29.2969	-1.3623	-28.9600	80.0793	51.4700 
610.723	1.2861	0.3179	2.3892	0.2441	102.4780	-6.2256	-1.2305	-27.9272	79.8706	51.4700 
610.723	1.3027	0.1230	3.0747	-7.3853	106.7505	10.3760	-1.2854	-26.8561	79.9036	51.5700 
610.723	0.7573	0.0527	3.5859	-10.0708	61.4624	52.1851	-1.5436	-25.9827	80.2936	51.4700 
610.739	0.4004	-0.4111	3.1099	-5.2490	-71.9604	57.9224	-1.9556	-26.2463	81.0187	51.4300 
610.755	0.5122	-0.3755	1.8628	-0.4272	-125.3052	12.6953	-2.1808	-27.3450	81.4197	51.2800 
610.755	0.9507	-0.2607	0.8950	-7.2021	-88.4399	-4.4556	-2.3126	-28.4106	81.5131	51.4300 
610.801	1.1465	-0.0371	0.7021	-6.8970	-40.8325	14.7095	-2.4500	-29.0753	81.6394	51.2800 
610.833	1.0322	-0.0322	0.7861	-5.7983	-28.0762	26.1841	-2.6642	-29.5038	81.9525	51.4300 
610.833	0.8179	-0.0474	0.8325	-0.9766	-31.3110	18.2495	-2.8070	-29.8938	82.2162	51.3300 
610.833	0.5986	-0.1187	0.8125	3.4180	-39.4287	1.3428	-2.8510	-30.3168	82.3206	51.5700 
610.833	0.5381	-0.1636	0.6973	7.1411	-31.1279	-10.9253	-2.8015	-30.7068	82.2931	51.3300 
610.833	0.5649	-0.1567	0.6816	10.5591	-12.6343	-14.7705	-2.6807	-30.9320	82.1887	51.5700 
610.848	0.5835	-0.1436	0.7764	13.3667	-0.7324	-14.8926	-2.5104	-31.0144	82.0569	51.4300 
610.848	0.6016	-0.1191	0.8784	15.5640	1.2817	-15.6250	-2.3016	-31.0309	81.9086	51.6200 
610.880	0.5830	-0.0664	0.9346	15.6860	-1.0986	-12.4512	-2.0764	-31.0474	81.7657	51.4700 
610.880	0.5142	-0.0171	0.9521	14.7095	-9.5825	-4.2114	-1.8896	-31.1078	81.6888	51.4300 
610.880	0.4204	-0.0303	0.8862	13.1836	-19.2871	5.8594	-1.7743	-31.2451	81.7328	51.3300 
610.895	0.3389	-0.0527	0.7896	11.9629	-25.6348	12.5732	-1.7358	-31.4374	81.8811	51.4300 
610.895	0.3047	-0.0942	0.6631	10.6812	-28.7476	17.0898	-1.7688	-31.6736	82.1118	51.2800 
610.895	0.3037	-0.1118	0.5547	9.3384	-29.3579	18.0664	-1.8457	-31.9373	82.3810	51.4700 
610.911	0.3164	-0.0898	0.4580	9.3994	-29.4189	20.6299	-1.9336	-32.2284	82.6666	51.4700 
610.911	0.2949	-0.0654	0.3750	9.3994	-28.9917	26.4893	-2.0544	-32.5415	83.0072	51.4300 
610.911	0.2588	-0.0508	0.2886	9.7046	-24.3530	30.3955	-2.1918	-32.8326	83.3972	51.5700 
610.942	0.2119	-0.0435	0.2446	9.3384	-17.5781	33.5083	-2.3621	-33.0634	83.8312	51.4300 
610.942	0.1284	0.0234	0.2163	9.6436	-7.2632	41.5039	-2.4884	-33.1512	84.2596	51.6700 
610.973	0.0464	0.0166	0.2051	10.8643	-0.9766	46.6309	-2.6202	-33.0579	84.7211	51.4300 
610.973	-0.0215	0.0215	0.1548	13.1836	6.2866	51.0864	-2.7081	-32.7942	85.1440	51.6200 
610.973	-0.0889	0.0151	0.0903	16.7847	10.3760	54.6875	-2.5433	-32.4481	85.2429	51.4700 
611.005	-0.1084	0.0093	-0.0127	20.3857	16.1133	54.6875	-2.0215	-32.1954	85.1715	51.2800 
611.005	-0.1152	0.0674	-0.0796	23.3154	22.7051	52.9175	-1.3458	-31.9153	85.2319	51.3300 
611.005	-0.1060	0.1489	-0.0869	26.1230	29.4800	51.8799	-0.6702	-31.6241	85.3638	51.4700 
611.005	-0.2188	0.4849	0.0762	25.6958	42.0532	64.0259	-0.1373	-31.2231	85.5615	51.2300 
611.036	-0.1714	0.1509	0.1431	16.6016	39.3066	56.6406	0.1813	-30.7288	85.7428	51.2800 
611.052	0.1782	0.1733	0.3506	11.6577	89.9658	14.2212	0.3900	-29.9323	85.7813	51.3300 
611.052	0.4956	0.1929	1.0669	3.1128	114.3799	-3.7842	0.5273	-28.8116	85.6659	51.4300 
611.052	1.1079	-0.0601	1.9648	-8.3618	122.8027	-21.8506	0.5548	-27.6031	85.4517	51.3300 
611.067	1.2803	0.0669	3.0640	-2.9297	122.0093	-19.0430	0.6042	-26.3727	85.1550	51.3300 
611.083	0.8472	-0.1177	3.2881	13.6108	41.1987	6.2866	0.6921	-25.6201	85.1221	51.4300 
611.083	0.4995	-0.2407	2.0601	24.1089	-65.4297	49.3774	0.6976	-26.0101	85.5450	51.2800 
611.114	0.4385	-0.3530	0.9419	19.5313	-38.6353	42.4194	0.5713	-26.5045	86.1053	51.4700 
611.114	0.4180	-0.3462	0.8872	11.7188	13.2446	33.9355	0.3900	-26.4935	86.6052	51.5700 
611.114	0.6172	-0.3955	1.5518	-0.1221	32.9590	3.9063	0.2527	-26.1694	86.7920	51.4300 
611.161	1.0913	-0.4126	2.1069	-5.9204	35.9497	-32.7148	0.2472	-25.8124	86.5558	51.4300 
611.161	1.3462	0.0371	2.1172	-2.5635	9.8267	-50.9644	0.4230	-25.6476	85.9790	51.6700 
611.161	1.2041	0.2930	1.5127	5.3711	-22.5830	-16.4185	0.6262	-25.8893	85.6219	51.5700 
611.161	0.7959	0.2061	1.0601	2.9907	-19.0430	10.0708	0.6921	-26.1749	85.5945	51.4300 
611.177	0.4824	0.1704	0.8662	-1.5259	-3.6011	14.4043	0.6757	-26.2848	85.6604	51.3300 
611.208	0.3535	0.1240	0.8877	-4.3335	-1.1597	14.6484	0.6152	-26.2793	85.7318	51.4300 
611.208	0.3027	0.0732	0.8643	-5.1880	-9.0942	9.2163	0.5493	-26.3177	85.7703	51.5700 
611.255	0.3916	0.0835	0.7764	-3.6011	-10.8032	0.3662	0.5328	-26.4166	85.7263	51.6200 
611.255	0.5200	0.1294	0.7246	-2.8687	-5.0659	-2.1973	0.5548	-26.5265	85.6274	51.3300 
611.255	0.5522	0.1338	0.7642	-2.2583	-8.9111	-1.1597	0.5823	-26.6583	85.5341	51.7600 
611.255	0.5278	0.0884	0.7769	-1.4648	-18.7378	4.0283	0.5878	-26.8726	85.5011	51.2300 
611.255	0.4897	0.0127	0.7964	0.2441	-28.0762	5.3101	0.5658	-27.1637	85.5121	51.2800 
611.270	0.3892	-0.0469	0.7983	1.0986	-39.7949	10.0098	0.5164	-27.5317	85.5835	51.3300 
611.270	0.2588	-0.1235	0.7104	-0.1831	-48.0347	10.4370	0.4065	-27.9602	85.7153	51.2800 
611.286	0.1782	-0.1694	0.5659	-2.9907	-47.1802	3.0518	0.2527	-28.3777	85.8362	51.4300 
611.286	0.2051	-0.1831	0.4458	-5.6152	-41.2598	-11.5356	0.1099	-28.7732	85.8472	51.4300 
611.302	0.3286	-0.1519	0.3877	-6.7139	-34.7290	-23.5596	0.0385	-29.1797	85.6769	51.4300 
611.302	0.4209	-0.1172	0.3755	-7.0801	-30.7007	-26.3672	0.0275	-29.5972	85.4187	51.2800 
611.333	0.4126	-0.0859	0.3589	-5.4932	-29.6021	-26.4282	0.0494	-30.0037	85.1385	51.4300 
611.333	0.3120	-0.0552	0.3223	-4.8218	-26.0010	-25.4517	0.0934	-30.3662	84.8529	51.4300 
611.333	0.1792	-0.0483	0.2480	-4.7607	-22.8271	-25.1465	0.1373	-30.6409	84.5837	51.2800 
611.333	0.0454	-0.0298	0.1201	-5.0049	-16.6626	-24.5972	0.1538	-30.7947	84.3420	51.4700 
611.365	-0.0439	-0.0474	-0.0542	-6.2866	-5.0049	-25.7568	-0.2966	-30.9045	84.4629	51.2300 
611.380	-0.1108	-0.0747	-0.1533	-6.4697	12.6953	-25.9399	-0.9723	-30.9650	84.6002	51.4300 
611.380	-0.2603	-0.2168	-0.0356	-7.2021	31.7383	-19.7144	-1.6315	-30.7837	84.9408	51.4300 
611.411	-0.2368	-0.4985	0.1309	-1.8311	47.3633	-58.2275	-1.9720	-30.3992	84.9463	51.2300 
611.411	0.0015	-0.4341	0.4902	2.1362	76.9653	-85.3882	-1.8567	-29.6906	84.3860	51.4300 
611.411	0.2173	-0.3423	1.1250	4.8828	94.1772	-99.2432	-1.4172	-28.7018	83.4027	51.3300 
611.443	0.4351	-0.2002	1.7959	12.2070	86.8530	-115.6006	-0.7581	-27.7405	82.1613	51.2300 
611.443	0.6265	0.1416	2.2754	17.2119	76.0498	-102.0508	-0.0220	-26.8890	80.9033	51.4700 
611.443	0.7300	0.2871	2.5317	9.3384	44.4946	-57.3120	0.4724	-26.2793	80.1013	51.5700 
611.474	0.7197	0.5508	2.1724	0.0610	21.7285	-35.9497	0.7635	-25.9662	79.5795	51.4700 
611.474	0.7749	0.6714	1.7573	-6.9580	25.7568	-4.2725	0.8954	-25.7355	79.3268	51.6700 
611.505	0.7520	0.3320	1.9146	-7.7515	31.9214	13.6108	0.8405	-25.4059	79.3762	51.4700 
611.505	0.7202	0.0898	2.1216	-6.0425	23.2544	14.4043	0.7196	-25.1093	79.5190	51.3300 
611.505	0.6206	0.0640	2.0688	-3.1738	-2.8687	10.4980	0.6372	-25.0159	79.6289	51.4300 
611.505	0.6187	0.0342	1.5859	-3.0518	-20.3247	12.3901	0.5603	-25.1642	79.7552	51.2800 
611.505	0.7529	0.0493	1.1616	-4.3945	-12.9395	10.1929	0.4779	-25.3510	79.8596	51.2300 
611.505	0.8340	0.0781	1.0083	-4.7607	-5.9814	16.9678	0.3735	-25.4993	80.0134	51.0400 
611.537	0.7456	-0.0103	0.9961	-1.2207	-14.7095	24.4141	0.2472	-25.6915	80.2661	51.2800 
611.568	0.5620	-0.1060	0.9131	2.9297	-30.7617	27.2827	0.1099	-26.0046	80.5847	51.4300 
611.568	0.3867	-0.1714	0.7573	5.8594	-39.3677	17.8223	0.0000	-26.3947	80.8704	51.2800 
611.568	0.3018	-0.1841	0.6338	7.6294	-36.8652	5.4932	-0.0659	-26.7737	81.0516	51.2800 
611.614	0.3037	-0.0845	0.5723	9.1553	-27.4658	-1.9531	-0.0385	-27.0758	81.0956	51.4700 
611.614	0.3604	-0.0313	0.5806	9.3994	-17.2729	-2.0142	0.0330	-27.2955	81.0901	51.4300 
611.614	0.3745	0.0391	0.6104	10.1318	-13.8550	6.9580	0.1208	-27.4658	81.1230	51.3300 
611.614	0.3491	0.0664	0.6035	10.5591	-18.1274	18.6768	0.1758	-27.6526	81.2659	51.4300 
611.614	0.2915	0.0874	0.5610	13.1226	-23.9258	30.8838	0.1978	-27.8778	81.5295	51.4300 
611.646	0.2075	0.1426	0.4941	16.4185	-29.4189	41.8091	0.2362	-28.1415	81.8756	51.2800 
611.646	0.1494	0.1875	0.3955	20.8130	-32.1655	50.3540	0.3186	-28.4381	82.2711	51.2800 
611.646	0.1050	0.2173	0.3081	24.8413	-32.4097	58.8989	0.4669	-28.7457	82.7051	51.4700 
611.646	0.0679	0.2183	0.2217	27.5879	-32.8979	69.4580	0.6537	-29.0643	83.2050	51.4700 
611.661	0.0269	0.2217	0.1421	28.8696	-33.0200	81.4209	0.8624	-29.4049	83.7872	51.3300 
611.661	-0.0356	0.2041	0.0620	29.3579	-31.4331	95.3369	1.1096	-29.7455	84.4519	51.2300 
611.708	-0.1021	0.1660	-0.0059	30.0293	-27.5879	107.4829	1.4172	-30.0366	85.1770	51.5700 
611.708	-0.1396	0.0894	-0.0664	30.5786	-20.2026	112.5488	1.7908	-30.2454	85.9351	51.3300 
611.708	-0.1450	-0.0024	-0.1060	30.5176	-10.3760	107.6050	2.2247	-30.3333	86.6602	51.2800 
611.708	-0.1084	0.0098	-0.1079	29.8462	2.9297	92.1631	1.9611	-30.3882	87.7917	51.3300 
611.708	-0.2393	0.2798	0.1812	21.3623	11.7798	106.8726	2.2028	-30.2454	88.4070	51.0400 
611.740	-0.1406	-0.1934	0.2012	11.1694	5.9814	75.7446	1.8073	-30.0916	89.3408	51.3300 
611.740	0.1646	-0.0723	0.3882	2.8076	48.8892	28.1982	1.4502	-29.6631	89.9176	51.0400 
611.740	0.4834	-0.1479	0.8989	-8.7891	71.7163	6.8359	1.2634	-28.9764	90.0385	51.2800 
611.740	1.1211	-0.2188	1.7666	-11.2305	121.8872	-28.1372	1.1755	-27.9327	89.8572	51.1400 
611.771	1.5801	-0.0322	3.3530	-0.5493	168.7012	-52.9175	1.3568	-26.3342	89.2694	51.3300 
611.771	1.2690	-0.1973	3.9009	1.3428	87.8906	7.6904	1.4063	-25.1093	89.1046	51.3300 
611.817	0.8472	-0.3286	2.8750	9.2163	-38.8794	25.3906	1.3184	-25.1752	89.3903	51.3300 
611.817	0.6211	-0.0684	1.7632	9.0942	-55.1147	15.9912	1.3074	-25.7080	89.5441	51.2300 
611.864	0.8218	-0.0400	1.5718	2.5024	-16.1133	-10.5591	1.3458	-25.9662	89.4452	51.2800 
611.864	1.1831	0.1313	1.9165	-3.4180	0.9155	-34.7290	1.4777	-25.9937	89.0442	50.9500 
611.864	1.4111	0.3511	1.9893	-1.7090	-12.3901	-18.1274	1.6040	-26.1200	88.6761	51.2800 
611.864	1.1377	0.3745	1.6782	3.2349	-16.0522	15.7471	1.6425	-26.3452	88.6542	51.4300 
611.864	0.7544	0.2769	1.4346	2.8687	-2.3193	34.2407	1.5765	-26.4441	88.8959	51.1400 
611.864	0.5420	0.1738	1.3809	1.1597	4.3945	29.8462	1.4722	-26.3947	89.1541	51.2300 
611.864	0.5552	0.2017	1.3555	1.6479	-2.8076	21.4233	1.4172	-26.3837	89.2969	51.2300 
611.895	0.6860	0.2217	1.2305	2.4414	-11.5967	23.9868	1.3788	-26.4935	89.4397	51.1400 
611.895	0.7402	0.2051	1.0669	4.5776	-16.1743	32.6538	1.3184	-26.7023	89.6759	51.0400 
611.895	0.6807	0.1479	0.9072	4.3945	-15.5640	37.1094	1.2195	-26.9275	89.9835	51.2300 
611.911	0.5840	0.0640	0.8115	2.0752	-13.1226	34.4849	1.0822	-27.1307	90.2966	51.2800 
611.911	0.5234	0.0015	0.7559	-0.5493	-11.5967	31.0669	0.9229	-27.3010	90.5878	51.2300 
611.927	0.4707	-0.0869	0.6899	-3.3569	-13.8550	28.1982	0.7086	-27.4768	90.8679	51.4300 
611.942	0.3984	-0.1855	0.6182	-7.2632	-17.2119	24.2920	0.4285	-27.6691	91.1591	51.2800 
611.958	0.3184	-0.2563	0.4888	-10.4980	-18.0054	16.9067	0.0824	-27.8833	91.4337	51.2300 
611.958	0.2476	-0.3052	0.3779	-15.1978	-15.3198	5.9814	-0.3076	-28.0756	91.6534	51.1400 
611.974	0.1963	-0.3062	0.2959	-18.9819	-10.6201	-6.8970	-0.7251	-28.2349	91.7743	51.0900 
611.974	0.1694	-0.2998	0.2500	-22.1558	-5.1880	-19.6533	-1.1371	-28.3447	91.7743	51.1400 
612.020	0.1665	-0.2695	0.2417	-24.1699	0.1221	-33.6914	-1.4941	-28.4106	91.6150	51.1400 
612.020	0.1572	-0.2314	0.2822	-24.2920	-0.1221	-44.3115	-1.7468	-28.4381	91.2964	51.2800 
612.020	0.1753	-0.2007	0.2886	-25.0244	-1.7090	-55.9082	-1.9116	-28.4875	90.8185	51.4300 
612.052	0.1890	-0.1138	0.3267	-24.4141	-2.4414	-60.8521	-1.9391	-28.5315	90.1758	51.3300 
612.083	0.1587	-0.0571	0.3428	-22.9492	-4.8828	-61.4624	-1.8896	-28.5809	89.4727	51.3300 
612.083	0.1016	0.0479	0.3486	-20.6909	-7.0801	-62.4390	-1.7358	-28.6139	88.6761	51.2300 
612.083	0.0781	0.0972	0.3687	-18.4326	-7.9346	-62.1948	-1.4777	-28.6304	87.8082	51.0400 
612.114	0.1299	0.1538	0.3677	-15.5029	-5.9814	-63.0493	-1.1426	-28.6688	86.9019	51.0900 
612.114	0.2290	0.1719	0.4146	-12.5732	-4.2114	-62.8662	-0.7855	-28.7347	86.0175	51.2800 
612.114	0.3101	0.1919	0.4468	-9.6436	-9.9487	-65.7349	-0.4449	-28.8666	85.1715	51.2800 
612.114	0.3574	0.2407	0.4854	-6.0425	-11.2305	-57.6782	-0.0385	-29.0314	84.3475	51.2300 
612.114	0.3608	0.3062	0.4487	-3.1128	-14.4653	-48.8281	0.3735	-29.2346	83.6005	51.0400 
612.114	0.3276	0.2676	0.3696	-2.6855	-13.7939	-40.5884	0.7690	-29.4489	82.9523	51.2800 
612.114	0.2339	0.2002	0.3008	-3.0518	-9.5825	-33.5693	1.1206	-29.6191	82.3865	51.0400 
612.130	0.0342	0.0732	0.3418	-1.7090	-7.1411	-19.8975	1.3788	-29.6246	81.9470	51.2800 
612.130	-0.1831	-0.2295	0.3701	-2.0752	-8.7280	-24.6582	1.2469	-29.4983	81.9635	51.3300 
612.130	-0.1743	-0.4150	0.2979	-0.7324	4.1504	-51.2695	1.0217	-29.4434	81.9800	51.0400 
612.177	-0.0273	-0.3428	0.4487	0.4272	29.5410	-68.2373	1.0272	-29.1302	81.6174	51.2300 
612.177	0.1963	-0.2036	0.7515	-0.4272	53.3447	-67.2607	1.2469	-28.5535	80.9802	51.0400 
612.255	0.4810	-0.1934	1.1709	-1.1597	83.0078	-54.5044	1.4667	-27.7515	80.3925	51.2300 
612.255	0.7578	-0.1914	1.8740	-2.1973	114.4409	-52.0020	1.6479	-26.6418	79.8706	51.0900 
612.255	0.9312	0.0552	2.8105	-1.8311	129.1504	-55.2368	1.8512	-25.3070	79.3103	51.2800 
612.255	0.9951	0.5239	3.2578	6.9580	91.4917	-39.4897	2.1368	-24.2084	78.7885	51.2800 
612.255	1.0898	0.5854	2.9438	7.7515	33.8135	-0.5493	2.3016	-23.6975	78.6237	51.4300 
612.286	1.0552	0.2690	2.2520	12.3291	1.7090	25.3296	2.3621	-23.6371	78.8049	51.3300 
612.286	0.9419	0.0767	1.7603	9.9487	3.6621	32.2876	2.3401	-23.6536	79.1235	51.1400 
612.286	0.8301	-0.0229	1.5317	4.6997	7.8735	34.4849	2.2357	-23.6261	79.4916	51.2800 
612.286	0.6831	-0.1245	1.5005	-0.7935	2.8076	35.2173	2.0544	-23.6041	79.8926	51.0900 
612.286	0.6123	-0.2437	1.4253	-4.0283	-4.0283	26.2451	1.8292	-23.6371	80.2386	51.0400 
612.286	0.5776	-0.3047	1.3242	-4.8828	-9.3994	12.2681	1.6260	-23.7250	80.4639	51.3300 
612.286	0.5947	-0.3145	1.1987	-4.8828	-11.6577	-0.7935	1.4777	-23.8513	80.5463	51.1400 
612.317	0.6377	-0.2485	1.0806	-4.6387	-9.8267	-8.4839	1.3733	-23.9941	80.5243	51.0400 
612.317	0.6445	-0.1792	1.0176	-3.9673	-8.1177	-10.6812	1.3184	-24.1205	80.4474	51.2300 
612.317	0.6045	-0.0981	0.9668	-2.0142	-8.0566	-10.8643	1.2964	-24.2468	80.3430	51.0900 
612.317	0.5464	-0.0420	0.9272	0.6104	-11.1084	-11.4136	1.3129	-24.3896	80.2277	51.2800 
612.333	0.4766	0.0845	0.8877	2.8687	-14.4653	-9.7656	1.3953	-24.5490	80.0958	51.0900 
612.349	0.4351	0.1030	0.8442	4.8828	-21.3013	-5.4932	1.4996	-24.7632	79.9915	51.1400 
612.349	0.4038	0.1284	0.7646	5.6152	-28.8696	-1.2207	1.6040	-25.0543	79.9200	50.9500 
612.395	0.3604	0.2119	0.6699	7.8125	-32.8369	5.4932	1.7413	-25.4004	79.8871	51.2800 
612.395	0.3232	0.1641	0.5645	8.3618	-34.1187	14.0381	1.8457	-25.7684	79.9420	51.2300 
612.395	0.2876	0.1069	0.4673	8.7891	-30.2124	20.0806	1.9226	-26.1200	80.0739	51.0400 
612.395	0.2329	0.0874	0.3877	9.7046	-23.3154	23.6816	1.9775	-26.4056	80.2551	51.0400 
612.427	0.1953	0.0532	0.3555	10.6201	-14.5264	26.3062	1.9995	-26.6034	80.4858	51.1400 
612.427	0.1836	0.0342	0.3262	11.5967	-5.8594	27.3438	1.9995	-26.7133	80.7605	51.2800 
612.458	0.1997	0.0122	0.3345	12.8174	2.8076	30.5176	1.9830	-26.7352	81.0681	51.0900 
612.458	0.2271	-0.0146	0.3667	12.4512	7.1411	35.7056	1.9171	-26.7078	81.4526	50.9500 
612.458	0.2524	-0.0635	0.4058	12.3901	7.5684	38.8794	1.7963	-26.6803	81.9086	51.2300 
612.458	0.2910	-0.1216	0.4443	11.4746	4.2114	38.9404	1.6260	-26.6748	82.3975	51.2300 
612.474	0.3374	-0.1094	0.4878	10.9253	-1.6479	37.5366	1.4612	-26.7297	82.8589	51.1400 
612.474	0.4126	-0.1313	0.5190	9.2163	-11.3525	35.8887	1.2909	-26.8890	83.3038	51.0400 
612.474	0.4814	-0.1392	0.5439	7.3853	-21.7896	35.3394	1.1151	-27.1747	83.7323	51.1400 
612.490	0.5542	-0.1367	0.5576	4.9438	-31.1890	31.7993	0.9283	-27.5647	84.1223	50.9500 
612.513	0.6255	-0.1499	0.5669	3.2959	-38.0249	31.7993	0.7251	-28.0481	84.4958	51.2300 
612.520	0.6665	-0.1641	0.5806	1.7090	-44.9829	30.7007	0.5054	-28.6084	84.8694	51.2300 
612.520	0.6553	-0.1797	0.5942	0.1831	-49.0723	28.7476	0.2747	-29.2017	85.2209	51.0900 
612.558	0.5693	-0.2388	0.6099	-1.9531	-53.2227	26.3062	0.0055	-29.8114	85.5670	51.0400 
612.558	0.4741	-0.3071	0.5913	-4.3945	-52.5513	20.9351	-0.2966	-30.3992	85.9076	51.2300 
612.573	0.4053	-0.3203	0.5679	-5.3711	-48.2788	8.3618	-0.5988	-30.9210	86.1548	51.0400 
612.573	0.3809	-0.4155	0.5850	-9.8877	-37.2925	2.3804	-0.9174	-31.3385	86.3525	50.9500 
612.589	0.3813	-0.3853	0.6191	-13.8550	-29.6021	-7.0801	-1.2085	-31.6626	86.4294	50.9500 
612.589	0.4336	-0.2856	0.6289	-16.6016	-26.0620	-14.2822	-1.4447	-31.9427	86.3800	51.0400 
612.589	0.4507	0.1567	0.6440	-19.3481	-20.9961	-20.8740	-1.4996	-32.2009	86.1163	51.0900 
612.636	0.3027	0.3560	0.8589	-26.7334	-29.7852	17.3340	-1.6040	-32.4207	85.9955	51.0400 
612.636	0.5186	-0.0703	0.8105	-26.0010	-15.3198	-7.1411	-1.8951	-32.6404	86.0065	51.0400 
612.636	0.7090	0.1855	1.2651	-19.1040	25.7568	-28.5034	-1.8842	-32.4591	85.6110	51.0400 
612.636	0.5938	0.2549	1.5610	-13.6108	10.4370	-17.9443	-1.8073	-32.2559	85.2374	51.0400 
612.636	0.4478	0.1924	1.3491	-9.4604	7.4463	1.2817	-1.8182	-32.1295	85.0946	50.9500 
612.667	0.2690	0.1377	1.1489	-8.6670	38.6963	5.1270	-1.8567	-31.7395	85.0342	51.1400 
612.683	0.1772	0.1758	1.3394	-8.8501	66.1621	0.6104	-1.8622	-31.0034	84.9023	51.1400 
612.683	0.2993	0.2603	1.6714	-8.6670	71.3501	-3.2959	-1.8347	-30.1794	84.7156	51.1400 
612.683	0.5586	0.3052	2.0479	-2.4414	76.4771	-11.5967	-1.7249	-29.3500	84.4684	51.0400 
612.698	0.8311	0.3560	2.5142	3.9063	74.4629	-19.5313	-1.5216	-28.5315	84.1388	51.0400 
612.698	1.0127	0.4326	2.7241	13.3667	33.2642	-9.3994	-1.2634	-28.0316	83.8806	51.0400 
612.714	1.0635	0.4087	2.4131	19.8364	-14.5874	12.4512	-1.0492	-28.0481	83.8641	51.1400 
612.745	0.9595	0.2314	1.9263	21.9727	-25.3296	30.4565	-0.9174	-28.2843	84.0948	51.0900 
612.745	0.8374	0.0386	1.6567	20.5688	-12.8784	35.4614	-0.8789	-28.4326	84.4409	51.1400 
612.745	0.7051	-0.0713	1.5181	16.9678	-6.6528	34.1187	-0.8899	-28.4875	84.8090	51.0400 
612.777	0.5981	-0.1543	1.3442	14.3433	-4.8828	31.3110	-0.9448	-28.5095	85.1605	51.0900 
612.777	0.5186	-0.1846	1.1729	12.3291	0.0000	27.3438	-1.0162	-28.4875	85.4901	51.3300 
612.777	0.4688	-0.1748	1.0454	12.1460	3.4790	22.5220	-1.0822	-28.4271	85.7703	50.9500 
612.792	0.4663	-0.1104	0.9551	12.3901	3.6621	18.7988	-1.1041	-28.3667	85.9900	50.9500 
612.792	0.4854	-0.0391	0.8638	13.0005	0.3052	19.0430	-1.0876	-28.3502	86.1768	50.8000 
612.792	0.4976	-0.0107	0.7515	13.7329	-2.4414	21.3623	-1.0712	-28.3942	86.3745	51.1400 
612.839	0.4761	0.0000	0.6406	13.4888	-1.5869	23.4375	-1.0547	-28.4491	86.5887	51.1400 
612.839	0.4233	-0.0239	0.5225	11.0474	0.6104	24.3530	-1.0767	-28.5040	86.8304	50.9500 
612.839	0.3628	-0.0605	0.4204	7.6904	4.8828	22.1558	-1.1426	-28.5315	87.0721	51.0400 
612.870	0.3003	-0.1216	0.3447	3.1128	9.2163	17.8833	-1.2854	-28.5150	87.3083	51.0900 
612.870	0.2534	-0.1597	0.2856	-1.5869	13.5498	9.5215	-1.4832	-28.4601	87.5061	51.1400 
612.870	0.2266	-0.2183	0.2500	-5.7373	16.9067	-0.3052	-1.7358	-28.3722	87.6434	51.0400 
612.870	0.2119	-0.2490	0.2402	-9.2773	18.9819	-9.7046	-2.0105	-28.2623	87.6984	51.0900 
612.870	0.2065	-0.2822	0.2349	-13.3057	20.3857	-19.0430	-2.3016	-28.1470	87.6764	51.0400 
612.902	0.2144	-0.3125	0.2183	-16.9678	24.5361	-30.8228	-2.5928	-28.0206	87.5391	50.9500 
612.917	0.2192	-0.2773	0.2495	-20.0806	28.0151	-39.6118	-2.8400	-27.8448	87.2699	50.9000 
612.917	0.2192	-0.2217	0.2886	-22.2778	30.2124	-46.6919	-3.0267	-27.6361	86.8909	51.0400 
612.933	0.2432	-0.2202	0.3286	-24.0479	30.7007	-54.9316	-3.1696	-27.4109	86.4130	50.7600 
612.933	0.2612	-0.1343	0.3984	-25.3906	32.6538	-56.3965	-3.2080	-27.1527	85.8142	50.9500 
612.948	0.3032	-0.1309	0.4624	-26.1841	31.0059	-63.5986	-3.2300	-26.9110	85.1495	50.9500 
612.948	0.3354	-0.0659	0.5439	-26.1841	28.2593	-70.2515	-3.1805	-26.6858	84.3805	51.0900 
612.948	0.4185	-0.1069	0.6323	-25.3906	19.7144	-77.9419	-3.0817	-26.5375	83.5345	51.0400 
612.995	0.4355	0.1304	0.7178	-23.6816	18.6768	-72.8760	-2.8564	-26.4221	82.6007	51.0400 
612.995	0.4795	0.1230	0.8193	-20.3857	12.5732	-69.6411	-2.6422	-26.3452	81.7328	51.2300 
612.995	0.4956	0.0176	0.9121	-15.1978	4.2114	-71.3501	-2.4609	-26.3232	80.9528	50.9500 
613.042	0.4888	0.2769	0.9434	-12.6343	11.3525	-62.1948	-2.1423	-26.2793	80.1178	51.0900 
613.042	0.5430	0.2344	1.0498	-10.2539	13.0615	-56.5186	-1.8622	-26.1859	79.3817	50.9000 
613.042	0.5972	0.3267	1.1553	-6.8970	15.0146	-49.8657	-1.5875	-26.0706	78.7170	51.0900 
613.074	0.6704	0.3232	1.2607	-5.9814	16.7847	-39.7339	-1.3458	-25.9277	78.1787	50.9000 
613.074	0.7300	0.4395	1.3682	-4.2725	14.2212	-30.2734	-1.1261	-25.8014	77.7283	51.0400 
613.074	0.8101	0.4883	1.4131	-2.9907	5.6152	-16.9678	-0.9393	-25.7574	77.4207	51.0400 
613.074	0.8892	0.4946	1.3735	-1.4038	-4.1504	-6.0425	-0.8020	-25.8124	77.2449	51.0900 
613.105	0.9326	0.4380	1.2983	0.6104	-16.3574	2.9907	-0.7031	-26.0046	77.1899	51.0400 
613.120	0.9434	0.3320	1.2041	3.1738	-26.1230	8.8501	-0.6207	-26.3068	77.2229	51.2300 
613.120	0.9053	0.2314	1.0928	6.1035	-37.0483	11.5356	-0.5548	-26.7297	77.3053	51.0900 
613.136	0.7793	0.0703	1.1069	9.2163	-47.3022	19.5313	-0.5273	-27.2296	77.4921	51.0400 
613.136	0.5630	-0.1831	1.2217	9.3994	-62.7441	24.9634	-0.5878	-27.8119	77.7997	50.7100 
613.136	0.3608	-0.4282	1.2642	7.8125	-77.2705	21.1182	-0.7361	-28.4930	78.1622	51.2300 
613.136	0.1948	-0.5098	1.2192	4.0894	-82.2754	12.9395	-0.9283	-29.2236	78.4973	50.9500 
613.168	0.1016	-0.3926	1.0938	-1.5259	-73.9136	10.2539	-1.1536	-29.8663	78.7830	51.0900 
613.168	0.0776	-0.1499	0.9321	-6.9580	-49.9268	10.6201	-1.3568	-30.2838	78.9862	51.0900 
613.199	0.1445	-0.0210	0.8398	-9.0332	-14.4653	16.1743	-1.5436	-30.3882	79.1565	51.2800 
613.199	0.2285	-0.0557	0.9780	-7.5073	22.2168	18.8599	-1.7413	-30.1410	79.3652	51.0900 
613.199	0.3350	-0.1831	1.2827	-3.6621	38.0859	6.5308	-1.8787	-29.6851	79.5026	51.0400 
613.199	0.4521	-0.2236	1.5415	0.5493	32.4707	-10.6201	-1.8842	-29.2566	79.4476	50.9500 
613.199	0.5112	-0.1621	1.6074	2.6245	12.2070	-19.5923	-1.7853	-29.0149	79.2554	51.0900 
613.245	0.5083	-0.1289	1.4326	1.4038	-6.9580	-18.1274	-1.6809	-28.9929	79.0576	50.9500 
613.245	0.4741	-0.1431	1.2412	-2.3804	-10.2539	-15.9302	-1.6370	-29.0479	78.8983	51.0900 
613.261	0.4272	-0.1523	1.1455	-6.4087	-9.2773	-13.4888	-1.6534	-29.0973	78.7775	50.8000 
613.293	0.3711	-0.1309	1.0508	-9.6436	-8.2397	-11.1694	-1.7194	-29.1302	78.6786	50.8000 
613.293	0.3110	-0.1191	0.9502	-11.8408	-6.9580	-10.3760	-1.8073	-29.1467	78.5907	50.7600 
613.293	0.2744	-0.1133	0.8550	-13.4888	-3.3569	-12.6343	-1.9116	-29.1248	78.4918	50.9500 
613.293	0.2490	-0.0708	0.7827	-13.9771	-0.1831	-16.7236	-1.9940	-29.0698	78.3325	50.9500 
613.293	0.2544	-0.0122	0.7314	-13.2446	2.6855	-21.5454	-2.0160	-28.9929	78.1018	51.0900 
613.293	0.2734	0.0259	0.6968	-12.4512	5.9204	-25.5737	-1.9775	-28.9050	77.7942	51.1400 
613.324	0.2798	0.1152	0.6719	-8.3618	10.9863	-27.6489	-1.8677	-28.7842	77.4316	51.0400 
613.324	0.2734	0.1069	0.6714	-5.8594	12.9395	-23.5596	-1.7194	-28.6304	77.0911	51.0400 
613.324	0.2559	0.1289	0.6626	-2.4414	14.7705	-21.9116	-1.5491	-28.4546	76.7670	51.2300 
613.355	0.2310	0.1748	0.6328	1.3428	15.5640	-18.4326	-1.3458	-28.2623	76.4648	51.0400 
613.355	0.2368	0.1812	0.5928	4.4556	14.8926	-10.6201	-1.1206	-28.0865	76.2231	50.6100 
613.386	0.2368	0.1724	0.5273	7.3242	16.1743	-2.9907	-0.9119	-27.9108	76.0693	51.0900 
613.386	0.2266	0.1689	0.4980	10.8032	20.6299	3.5400	-0.6921	-27.7020	75.9869	51.1400 
613.386	0.2432	0.1284	0.4907	12.9395	25.0244	8.4839	-0.5164	-27.4603	75.9979	51.0400 
613.386	0.2466	0.1060	0.5396	15.1367	27.9541	13.8550	-0.3571	-27.1747	76.0803	51.0900 
613.386	0.2627	0.0659	0.6279	16.5405	26.7334	18.3716	-0.2307	-26.8781	76.2341	50.9000 
613.386	0.2793	0.0610	0.6567	17.2119	23.6206	24.1089	-0.1373	-26.6089	76.4484	51.0900 
613.448	0.2925	0.0552	0.6777	18.3716	21.3623	31.1890	-0.0714	-26.3672	76.7450	51.0400 
613.448	0.2803	0.0796	0.7061	19.5923	19.3481	40.4053	-0.0220	-26.1420	77.1295	51.1400 
613.448	0.2603	0.0493	0.7178	20.2026	14.7095	48.6450	-0.0220	-25.9552	77.6129	50.9500 
613.480	0.2549	-0.0229	0.6777	18.6768	13.1836	51.0864	-0.0769	-25.7849	78.1677	50.9000 
613.480	0.2778	-0.0972	0.6997	16.5405	14.7095	48.0347	-0.1813	-25.6146	78.7335	51.0400 
613.480	0.3340	-0.1860	0.7534	13.1226	15.2588	41.2598	-0.3241	-25.4498	79.2609	51.0900 
613.480	0.4229	-0.2710	0.8140	9.6436	14.3433	31.0059	-0.4779	-25.3125	79.7058	50.7100 
613.480	0.5352	-0.3125	0.9023	6.1035	12.8784	21.3013	-0.6207	-25.2081	80.0409	50.9500 
613.511	0.6313	-0.2896	1.0078	3.5400	6.8970	15.7471	-0.7526	-25.1587	80.2881	50.9000 
613.511	0.7051	-0.2490	1.0620	2.1362	-4.2114	15.1978	-0.8734	-25.2191	80.4968	51.0400 
613.527	0.7402	-0.1680	1.0117	2.5635	-13.7939	18.3716	-0.9833	-25.3949	80.7220	51.2800 
613.527	0.7251	-0.0889	0.9644	3.7231	-16.7847	24.7803	-1.0822	-25.6256	80.9857	51.0400 
613.558	0.6812	-0.0947	0.9468	4.5166	-15.2588	29.0527	-1.2030	-25.8398	81.3098	50.8000 
613.558	0.6362	-0.1030	0.9678	5.3711	-13.1226	27.7100	-1.3239	-26.0156	81.6394	50.8000 
613.558	0.6074	-0.1338	1.0137	5.4932	-11.0474	23.9868	-1.4282	-26.1530	81.9305	50.9000 
613.589	0.6138	-0.1631	1.0527	4.3335	-8.9111	16.4795	-1.5106	-26.2683	82.1558	50.9500 
613.589	0.6504	-0.1802	1.0811	2.8687	-6.9580	7.3853	-1.5765	-26.3672	82.2821	51.0400 
613.589	0.6680	-0.2026	1.1279	1.8921	-9.9487	5.1270	-1.6315	-26.4716	82.3700	51.0400 
613.620	0.7065	-0.2119	1.0913	0.6714	-13.8550	2.4414	-1.6919	-26.6364	82.4304	50.9500 
613.620	0.7344	-0.1890	1.1030	-0.3052	-15.6860	1.5869	-1.7523	-26.8231	82.4744	51.0400 
613.652	0.7358	-0.0483	1.1763	-2.1973	-20.0806	3.9063	-1.8018	-27.0483	82.5073	51.1400 
613.652	0.7061	0.0654	1.3223	-5.3711	-28.9917	13.2446	-1.8842	-27.3175	82.6062	51.0400 
613.652	0.6328	0.1997	1.4014	-7.3242	-38.3911	22.7661	-2.0050	-27.6636	82.7710	50.9500 
613.683	0.5444	0.2188	1.3403	-7.2632	-44.3726	29.9683	-2.1698	-28.0591	83.0292	50.9000 
613.683	0.4395	0.2202	1.1138	-1.3428	-41.3818	37.4756	-2.3126	-28.4436	83.3478	50.9000 
613.683	0.2505	0.1875	0.9268	4.6997	-29.2358	47.2412	-2.4390	-28.6908	83.7653	51.0900 
613.683	0.0332	0.1030	0.7778	7.8735	-10.8643	49.6216	-2.5433	-28.7073	84.2047	51.0900 
613.714	-0.1592	0.0259	0.7656	8.6670	13.1226	39.9780	-2.5983	-28.4052	84.5288	50.9500 
613.714	-0.2192	-0.0371	0.8403	7.4463	36.7432	17.5781	-2.5873	-27.8394	84.6497	51.0400 
613.714	-0.1050	-0.0044	1.0474	5.5542	52.7954	-2.3193	-2.4829	-27.1307	84.5398	51.1400 
613.714	0.1079	0.0898	1.2842	2.3804	51.3306	-9.8267	-2.3401	-26.4661	84.3091	50.9000 
613.714	0.3184	0.1426	1.4277	1.5869	40.8325	-7.2632	-2.2192	-25.9497	84.1003	51.0900 
613.746	0.4746	0.1870	1.4810	3.1128	26.0010	3.2959	-2.1259	-25.5981	84.0015	51.0400 
613.746	0.5435	0.2847	1.4263	6.0425	9.0332	18.8599	-2.0599	-25.4388	84.0564	51.0400 
613.777	0.5410	0.3057	1.3345	10.4980	-2.2583	39.8560	-2.0380	-25.4169	84.3311	51.0400 
613.777	0.4922	0.1680	1.2471	15.3809	-6.9580	49.4995	-2.0599	-25.4443	84.7760	50.8000 
613.777	0.4072	0.1699	1.1367	18.4937	-7.5073	57.3730	-2.0654	-25.4773	85.2869	51.1400 
613.808	0.3594	-0.0005	1.0522	19.5923	-4.7607	54.9927	-2.1094	-25.4773	85.8472	50.9500 
613.808	0.3281	-0.0195	0.9688	18.0664	-1.2817	50.5981	-2.1533	-25.4388	86.3580	51.0900 
613.823	0.3135	-0.0542	0.9009	15.7471	1.3428	48.2178	-2.2137	-25.3729	86.8469	51.0900 
613.823	0.3213	-0.1343	0.8379	13.1226	4.0894	44.0063	-2.3236	-25.2905	87.3248	51.2300 
613.823	0.3184	-0.1753	0.7974	11.6577	5.0659	36.6821	-2.4390	-25.2026	87.7588	51.0400 
613.855	0.3179	-0.1621	0.7520	10.6201	4.4556	32.7759	-2.5378	-25.1257	88.1213	51.0400 
613.855	0.3252	-0.1631	0.7051	10.3149	3.7842	27.7710	-2.6367	-25.0653	88.4509	50.9500 
613.855	0.3276	-0.1699	0.6851	9.4604	3.5400	23.8647	-2.7246	-25.0159	88.7366	51.0400 
613.886	0.3105	-0.1265	0.6587	8.6060	0.3052	20.0195	-2.7795	-24.9939	88.9563	50.9500 
613.886	0.3184	-0.1680	0.6426	7.5073	-2.2583	15.0146	-2.8400	-25.0049	89.1376	51.0900 
613.902	0.3159	-0.1445	0.6187	5.4321	-6.1646	6.7139	-2.8839	-25.0598	89.2365	50.9500 
613.902	0.3066	-0.0029	0.5938	3.1738	-6.9580	2.6855	-2.8619	-25.1312	89.2145	50.9500 
613.902	0.3379	-0.0874	0.5796	1.4648	-6.0425	-0.3052	-2.8729	-25.2246	89.1980	51.0400 
613.902	0.3433	-0.1060	0.5879	-0.5493	-5.3101	-6.5918	-2.9004	-25.3070	89.1376	50.8000 
613.917	0.3325	-0.0771	0.6001	-1.9531	-3.7842	-11.7188	-2.8894	-25.3729	88.9948	50.8000 
613.933	0.3486	-0.0718	0.6157	-2.6245	-1.9531	-13.3667	-2.8674	-25.4279	88.8080	51.0400 
613.933	0.3726	-0.1172	0.6216	-3.4180	0.3052	-20.5688	-2.8564	-25.4663	88.5938	50.9500 
613.964	0.4063	-0.1836	0.6577	-5.5542	0.9155	-25.5127	-2.8510	-25.4993	88.3301	50.9000 
613.964	0.3696	0.0420	0.7036	-4.9438	4.5776	-26.5503	-2.7466	-25.4993	87.9456	50.9000 
613.964	0.4351	-0.1118	0.7388	-5.6152	1.7700	-25.4517	-2.6862	-25.5048	87.6160	50.9500 
614.011	0.3970	0.0854	0.7280	-5.4321	3.7842	-29.9683	-2.5763	-25.5212	87.2150	51.0400 
614.011	0.4707	-0.1128	0.7588	-7.5073	2.0142	-27.8320	-2.5159	-25.5322	86.8689	51.0400 
614.011	0.4487	0.1372	0.7339	-7.6294	6.6528	-29.6021	-2.3895	-25.5322	86.4349	50.8000 
614.027	0.4941	0.0591	0.7803	-8.9111	6.6528	-34.8511	-2.3126	-25.5267	86.0229	50.9000 
614.027	0.5513	0.0488	0.8096	-9.5215	6.1035	-35.4614	-2.2083	-25.5267	85.5890	50.8000 
614.027	0.6021	0.0928	0.8560	-10.1318	3.5400	-32.4707	-2.0984	-25.5542	85.1550	50.9000 
614.058	0.6060	0.1021	0.9106	-9.8877	-1.0376	-32.0435	-2.0050	-25.6146	84.7375	50.9000 
614.105	0.5903	0.1084	0.9644	-9.3384	-6.8970	-30.9448	-1.9061	-25.7190	84.3311	51.0400 
614.105	0.5669	0.1011	1.0034	-8.6670	-10.3760	-30.8228	-1.8073	-25.8563	83.9301	51.0400 
614.105	0.5547	0.1133	1.0425	-7.4463	-10.9863	-29.1748	-1.6974	-25.9937	83.5455	50.9500 
614.105	0.5503	0.1245	1.0776	-5.9814	-10.4370	-26.2451	-1.5820	-26.1145	83.1830	50.7600 
614.105	0.5659	0.1660	1.1011	-4.4556	-8.8501	-22.7051	-1.4612	-26.2244	82.8589	50.9500 
614.120	0.5854	0.2246	1.1309	-2.5635	-7.9956	-16.4185	-1.3348	-26.3232	82.5842	50.9500 
614.120	0.6445	0.2720	1.1162	-0.4272	-5.9204	-12.4512	-1.1975	-26.4166	82.3480	50.9500 
614.120	0.7212	0.3232	1.1118	2.1362	-4.8828	-7.6904	-1.0492	-26.5100	82.1558	50.9000 
614.136	0.7974	0.2983	1.1416	5.2490	-9.6436	-1.7090	-0.9009	-26.6473	82.0404	51.1400 
614.152	0.8027	0.1465	1.3091	7.2632	-16.2964	3.4790	-0.7965	-26.8286	82.0074	51.0400 
614.152	0.6792	-0.0874	1.6108	7.1411	-31.0669	1.2817	-0.7361	-27.0813	82.0239	50.9000 
614.152	0.5410	-0.2295	1.6841	6.6528	-51.0864	-6.7749	-0.6866	-27.4933	81.9855	51.0400 
614.167	0.3853	-0.1851	1.3140	4.9438	-62.6831	-1.2207	-0.6647	-28.0371	81.9800	50.9000 
614.183	0.2158	-0.1353	0.8457	0.9155	-48.1567	16.7236	-0.7690	-28.4930	82.1558	51.0900 
614.199	0.0249	-0.2231	0.6875	-6.8359	-17.6392	25.6958	-1.0602	-28.6139	82.5348	50.9500 
614.214	-0.1064	-0.3447	0.7090	-12.0850	8.1787	15.1978	-1.4722	-28.4216	82.9633	50.7100 
614.230	-0.1074	-0.4287	0.8184	-14.2822	25.4517	-7.3853	-1.8292	-28.0481	83.1885	50.9500 
614.230	0.0166	-0.4590	1.0093	-14.4043	33.6304	-30.7007	-2.0215	-27.5977	83.0841	51.0900 
614.230	0.1807	-0.4365	1.2188	-14.7705	30.1514	-51.5137	-2.0654	-27.1912	82.6831	50.9500 
614.261	0.3218	-0.3149	1.3350	-14.0991	19.5923	-62.6831	-1.9885	-26.9055	82.0734	51.1400 
614.261	0.4004	-0.1753	1.3394	-14.2822	7.3242	-60.4248	-1.8622	-26.7627	81.4142	50.7600 
614.292	0.4165	-0.0894	1.2539	-14.2212	-1.2207	-52.3682	-1.7468	-26.7188	80.8154	50.8000 
614.292	0.3950	-0.0308	1.1758	-13.3667	-3.6011	-45.2881	-1.6479	-26.7188	80.2881	50.9500 
614.292	0.3755	0.0356	1.1328	-12.2070	-3.8452	-41.7480	-1.5436	-26.7188	79.7992	51.0400 
614.323	0.3667	0.1035	1.1299	-11.7188	-5.7983	-38.5132	-1.4282	-26.7297	79.3213	50.8000 
614.323	0.3740	0.1587	1.0830	-9.8267	-10.7422	-34.0576	-1.2964	-26.7847	78.8818	50.7600 
614.323	0.3643	0.1987	1.0273	-7.6904	-14.4043	-28.1372	-1.1591	-26.8835	78.4863	50.7100 
614.339	0.3496	0.2065	0.9526	-5.6763	-16.7847	-21.0571	-1.0217	-27.0154	78.1622	51.0400 
614.339	0.3301	0.1924	0.8740	-2.9297	-16.8457	-15.9912	-0.8844	-27.1527	77.9041	50.8000 
614.355	0.3022	0.1694	0.7964	-1.2207	-15.1978	-11.6577	-0.7526	-27.2736	77.6953	50.8000 
614.355	0.2856	0.1421	0.7271	-0.2441	-12.9395	-9.3994	-0.6262	-27.3779	77.5250	50.9000 
614.355	0.2788	0.1265	0.6743	0.7324	-11.4136	-5.6152	-0.5164	-27.4658	77.3987	50.9500 
614.402	0.2744	0.0933	0.6177	1.3428	-8.4839	-1.4038	-0.4340	-27.5372	77.3328	51.0400 
614.402	0.2710	0.0801	0.5942	2.2583	-7.2632	3.6621	-0.3735	-27.5977	77.3218	50.8000 
614.402	0.2578	0.0601	0.5610	3.1738	-6.5918	8.4229	-0.3461	-27.6471	77.3767	51.1400 
614.402	0.2559	0.0317	0.5439	4.8218	-4.3335	10.9863	-0.3406	-27.6855	77.4921	50.8000 
614.402	0.2520	0.0186	0.5215	6.5308	-1.4038	14.5874	-0.3461	-27.6965	77.6514	51.0900 
614.433	0.2485	0.0156	0.5181	9.0942	2.3193	19.2871	-0.3516	-27.6746	77.8601	50.9500 
614.464	0.2554	-0.0107	0.5249	10.9863	6.1646	22.3389	-0.3680	-27.6141	78.1183	50.9500 
614.464	0.2622	0.0098	0.5503	12.5732	11.0474	24.2920	-0.3680	-27.5043	78.3820	50.8000 
614.495	0.2798	0.0249	0.5898	14.3433	14.1602	27.0996	-0.3516	-27.3560	78.6621	50.9000 
614.495	0.2900	0.0356	0.6372	14.4653	17.0898	30.7007	-0.3406	-27.1747	78.9697	51.0400 
614.495	0.3013	0.0171	0.6719	14.5264	18.1274	34.4849	-0.3516	-26.9769	79.3213	50.7100 
614.495	0.3057	0.0146	0.7070	14.0381	19.8975	37.8418	-0.3845	-26.7627	79.7058	50.9500 
614.495	0.3228	-0.0313	0.7451	13.4888	20.5078	38.8184	-0.4504	-26.5375	80.1288	51.0400 
614.527	0.3628	-0.0708	0.7690	13.1226	21.0571	37.2314	-0.5219	-26.3123	80.5518	50.8000 
614.527	0.4165	-0.1162	0.8101	12.8174	19.1040	33.7524	-0.6097	-26.1145	80.9583	50.8000 
614.527	0.4780	-0.1514	0.8486	12.7563	15.5640	29.0527	-0.6812	-25.9607	81.3208	50.9000 
614.542	0.5347	-0.1733	0.8960	12.0850	10.2539	25.2075	-0.7416	-25.8728	81.6449	50.8000 
614.558	0.5928	-0.1714	0.9399	11.1694	2.6855	21.5454	-0.7910	-25.8563	81.9250	50.9500 
614.558	0.6543	-0.1587	0.9771	10.7422	-5.8594	18.4937	-0.8240	-25.9387	82.1613	50.7100 
614.558	0.6934	-0.1250	0.9971	10.5591	-13.0005	19.0430	-0.8459	-26.0980	82.3810	50.7600 
614.574	0.7129	-0.1177	0.9863	11.2915	-19.4092	20.4468	-0.8679	-26.3342	82.6117	50.9500 
614.574	0.7007	-0.1104	0.9673	11.8408	-21.1182	20.5078	-0.8899	-26.5924	82.8479	50.8000 
614.589	0.6660	-0.1152	0.9634	11.9629	-20.4468	19.3481	-0.9009	-26.8506	83.0786	50.8000 
614.605	0.6250	-0.1382	0.9624	11.5356	-17.0898	16.4185	-0.9119	-27.0648	83.2819	50.9500 
614.620	0.6089	-0.1846	0.9619	9.7656	-11.8408	10.4370	-0.9283	-27.2241	83.4412	50.7600 
614.636	0.6187	-0.2275	0.9814	7.3242	-6.4087	2.9297	-0.9393	-27.3230	83.5291	50.7600 
614.667	0.6621	-0.2593	1.0186	4.2725	-2.5024	-4.2725	-0.9503	-27.3889	83.5345	50.8000 
614.667	0.7310	-0.2715	1.0425	0.6104	-3.1128	-9.2773	-0.9723	-27.4603	83.4851	50.8000 
614.667	0.7793	-0.2466	1.0303	-2.3193	-4.7607	-9.3994	-1.0052	-27.5592	83.4027	50.9500 
614.699	0.7842	-0.2266	1.0225	-3.2959	-9.0332	-5.4321	-1.0657	-27.6910	83.3643	50.5600 
614.699	0.7881	-0.1201	1.0132	-4.0894	-11.7188	-4.3945	-1.1261	-27.8668	83.3258	50.7600 
614.699	0.7603	0.0615	1.1216	-5.6152	-16.1743	1.0986	-1.1646	-28.0591	83.2819	50.9500 
614.699	0.7065	0.1934	1.2642	-6.1035	-25.6348	10.1929	-1.2250	-28.3063	83.3093	50.8000 
614.714	0.6172	0.2603	1.3135	-4.5776	-32.9590	18.6157	-1.2909	-28.6084	83.4137	50.9000 
614.714	0.4902	0.3149	1.1899	2.3804	-35.3394	27.1606	-1.3293	-28.9325	83.5785	50.9500 
614.714	0.3418	0.3330	0.9873	10.0708	-30.8228	38.0859	-1.3129	-29.2126	83.8367	51.0400 
614.730	0.1719	0.3003	0.8281	14.7705	-19.1650	46.4478	-1.2744	-29.3610	84.1663	50.8000 
614.745	0.0234	0.2749	0.7515	16.8457	-3.1128	47.8516	-1.1975	-29.3115	84.4904	50.7100 
614.745	-0.0527	0.2305	0.7749	16.4185	12.8174	42.6636	-1.0986	-29.0698	84.7375	50.8000 
614.777	-0.0234	0.1470	0.8906	14.7705	26.8555	33.0200	-1.0107	-28.6633	84.9353	50.9000 
614.777	0.0869	0.0767	1.0610	13.1226	35.4004	20.0806	-0.9283	-28.1799	85.0562	50.7600 
614.777	0.2280	0.0786	1.2319	12.8784	37.5366	13.0615	-0.8240	-27.6965	85.1111	50.7600 
614.792	0.3267	0.0874	1.3218	13.7939	33.2031	15.2588	-0.7251	-27.2681	85.1770	50.9000 
614.792	0.3906	0.0811	1.3218	14.5264	26.9775	22.0337	-0.6482	-26.9165	85.3198	50.8000 
614.808	0.4199	0.0435	1.2490	15.4419	23.0713	29.4800	-0.6042	-26.6254	85.5560	50.7600 
614.824	0.4326	0.0029	1.1836	15.6250	21.3623	35.7666	-0.6097	-26.3617	85.8746	50.7100 
614.824	0.4248	-0.0454	1.1548	15.1978	19.5923	39.7949	-0.6482	-26.1200	86.2646	50.8000 
614.824	0.4053	-0.0771	1.1299	13.7939	15.5029	39.0015	-0.7141	-25.9113	86.6656	50.8000 
614.870	0.4009	-0.1123	1.0674	11.4136	11.1694	35.2783	-0.7965	-25.7520	87.0447	50.9000 
614.902	0.4028	-0.1016	0.9927	9.3994	6.8970	32.4707	-0.8844	-25.6476	87.3907	50.8000 
614.902	0.4155	-0.1089	0.9043	7.2632	4.9438	33.1421	-0.9888	-25.5762	87.7313	50.7100 
614.902	0.4053	-0.0762	0.8276	5.7373	5.4321	30.5786	-1.1096	-25.5212	88.0499	50.9000 
614.917	0.3975	-0.1108	0.7651	4.5166	5.9204	30.0293	-1.2360	-25.4608	88.3685	50.7100 
614.917	0.3647	-0.0786	0.7246	4.2114	5.9814	25.6958	-1.3513	-25.4059	88.6432	50.8000 
614.933	0.3550	-0.1221	0.6865	4.2114	5.0049	20.3247	-1.4612	-25.3564	88.8794	51.0400 
614.933	0.3252	-0.0786	0.6558	3.9063	4.6997	15.9302	-1.5271	-25.3070	89.0387	50.7600 
614.933	0.3374	-0.1421	0.6274	3.1128	3.4790	6.3477	-1.5985	-25.2850	89.1486	50.7600 
614.980	0.3208	-0.0698	0.6089	3.1128	4.0283	2.6855	-1.6095	-25.2521	89.1541	50.8000 
614.980	0.3228	-0.0796	0.5962	1.7700	3.3569	-2.8687	-1.6260	-25.2356	89.1266	50.9500 
614.980	0.3315	-0.1196	0.5811	1.1597	5.3711	-6.9580	-1.6370	-25.2136	89.0607	50.7100 
614.980	0.3242	-0.1025	0.5952	-0.6714	8.1787	-11.5967	-1.6425	-25.1642	88.9453	50.8000 
615.011	0.3325	-0.0698	0.6421	-2.1973	10.7422	-14.6484	-1.6205	-25.0818	88.7695	50.9500 
615.011	0.3462	-0.0708	0.6992	-3.2959	12.8174	-19.3481	-1.5930	-24.9719	88.5443	50.8000 
615.011	0.3735	-0.1152	0.7676	-4.8828	12.3901	-23.9258	-1.5656	-24.8566	88.2806	50.9500 
615.027	0.3804	0.0049	0.8184	-5.1270	13.5498	-27.9541	-1.4832	-24.7357	87.9126	50.7600 
615.027	0.4204	-0.0591	0.8657	-4.3335	9.7046	-39.0015	-1.4008	-24.6478	87.5116	50.6100 
615.042	0.4370	0.0977	0.9414	-5.3101	12.4512	-31.9824	-1.2415	-24.5325	87.0502	50.8000 
615.042	0.4717	0.1079	0.9668	-4.6997	9.0942	-31.1279	-1.1041	-24.4556	86.6162	50.7100 
615.042	0.4951	0.1045	0.9780	-4.8828	7.6294	-27.5879	-0.9833	-24.4006	86.2317	50.9500 
615.074	0.4839	0.0933	0.9971	-5.1270	4.5166	-25.2686	-0.8789	-24.3677	85.8746	50.9000 
615.074	0.4478	0.0576	0.9722	-5.9204	-2.0752	-35.3394	-0.8185	-24.3896	85.5176	50.8000 
615.074	0.4355	0.1982	0.9897	-7.2632	-0.8545	-24.5361	-0.6812	-24.3951	85.1276	50.9000 
615.105	0.4644	0.1792	0.9468	-7.3853	-4.6387	-21.1792	-0.5878	-24.4501	84.7870	50.9000 
615.105	0.5234	-0.0112	0.9277	-9.1553	-8.3008	-20.2637	-0.5493	-24.5490	84.5123	50.7600 
615.136	0.4565	0.2495	0.9468	-6.7749	-6.9580	-21.5454	-0.4285	-24.6478	84.1388	50.7100 
615.136	0.4966	0.1060	0.9897	-6.4697	-13.7329	-21.9727	-0.3571	-24.7852	83.8422	50.9000 
615.152	0.5625	-0.1387	0.9858	-8.0566	-19.8975	-22.3389	-0.3351	-24.9884	83.5895	50.7100 
615.152	0.5010	0.1621	0.9731	-5.0659	-19.7144	-30.1514	-0.2087	-25.2246	83.1775	50.8000 
615.152	0.5313	0.0942	0.9790	-3.9063	-26.3062	-33.2642	-0.0989	-25.4938	82.8094	50.7100 
615.167	0.5415	0.1333	0.9434	-3.0518	-25.6348	-25.9399	0.0165	-25.7794	82.4799	50.7600 
615.183	0.5298	0.2202	0.9214	-1.7090	-21.1182	-16.2354	0.1483	-26.0321	82.2052	50.6100 
615.183	0.5527	0.2217	0.9165	-0.9155	-18.7988	-6.3477	0.2582	-26.2518	82.0239	50.7100 
615.199	0.5718	0.2002	0.9092	1.0376	-17.8833	-3.3569	0.3516	-26.4661	81.9086	50.8000 
615.199	0.5879	0.1445	0.9292	2.2583	-18.3105	-2.5024	0.4395	-26.6858	81.8152	50.7600 
615.215	0.5469	0.0249	1.0405	3.8452	-21.9727	-1.7090	0.4999	-26.9055	81.7657	50.7100 
615.230	0.4604	-0.0938	1.1792	3.7842	-32.7759	-8.7280	0.5493	-27.1802	81.6888	50.6100 
615.230	0.3735	-0.2031	1.1226	0.9766	-41.5039	-13.9160	0.5768	-27.5262	81.5790	50.7600 
615.277	0.2720	-0.2842	0.9565	-3.1128	-37.3535	-12.4512	0.5219	-27.8558	81.5131	51.0400 
615.277	0.1709	-0.4063	0.8687	-8.1787	-27.0386	-13.4277	0.3571	-28.0811	81.5240	50.9000 
615.277	0.0859	-0.4961	0.8418	-14.6484	-14.0991	-22.0337	0.1099	-28.1799	81.5350	50.9500 
615.308	0.0415	-0.4883	0.8276	-21.6064	5.1270	-34.9121	-0.1593	-28.0865	81.4307	50.7100 
615.308	0.0908	-0.3506	0.8120	-26.2451	29.2969	-46.4478	-0.3680	-27.7625	81.1340	50.8000 
615.308	0.1890	-0.2075	0.8652	-27.8931	51.1475	-52.3682	-0.4944	-27.2131	80.6616	50.9000 
615.308	0.3286	-0.1421	0.9614	-26.8555	65.3687	-55.2979	-0.5438	-26.5430	80.0903	50.7600 
615.324	0.4526	-0.0698	1.0898	-23.0103	69.3970	-56.3965	-0.5328	-25.8344	79.4806	50.7100 
615.324	0.5117	0.0112	1.2100	-18.1274	58.8379	-51.2085	-0.4724	-25.2026	78.8873	50.5600 
615.355	0.4810	0.0630	1.2617	-13.3057	40.8325	-41.5649	-0.3900	-24.7302	78.3820	50.8000 
615.355	0.3965	0.0698	1.2295	-9.8267	25.9399	-34.8511	-0.3076	-24.4061	77.9645	50.7600 
615.355	0.3198	0.0835	1.1699	-7.5684	16.0522	-33.3862	-0.2087	-24.1754	77.5690	50.7100 
615.386	0.3047	0.0728	1.1289	-6.2256	7.9346	-34.5459	-0.0989	-24.0216	77.1735	50.9000 
615.386	0.3267	0.1084	1.0557	-4.9438	-0.9155	-35.5225	0.0385	-23.9667	76.7505	50.7100 
615.386	0.3628	0.1138	0.9424	-4.5166	-6.7139	-36.3770	0.1923	-23.9996	76.3330	50.7600 
615.402	0.3682	0.1299	0.8296	-5.3711	-6.8970	-31.4941	0.3406	-24.0656	75.9430	50.8000 
615.402	0.3550	0.1104	0.7354	-6.1646	-2.9297	-25.4517	0.4504	-24.1095	75.6134	50.7100 
615.417	0.3223	0.0762	0.6689	-6.4697	4.2725	-20.9351	0.5273	-24.0930	75.3552	50.9500 
615.417	0.2871	0.0474	0.6338	-6.7139	10.9253	-17.6392	0.5658	-24.0051	75.1520	50.8000 
615.417	0.2676	0.0166	0.6187	-6.0425	15.4419	-14.4653	0.5823	-23.8513	74.9982	50.8000 
615.449	0.2544	0.0015	0.6040	-4.7607	17.7002	-11.3525	0.5823	-23.6755	74.8883	50.5200 
615.464	0.2456	-0.0181	0.5996	-3.1128	18.6768	-9.3994	0.5768	-23.4833	74.8224	50.7100 
615.480	0.2290	-0.0298	0.6143	-1.4648	16.5405	-4.3945	0.5658	-23.2965	74.8004	50.7100 
615.511	0.2080	-0.0327	0.6255	0.1221	13.4888	-3.4180	0.5493	-23.1262	74.8004	50.8000 
615.511	0.1899	-0.0415	0.6504	1.0986	11.7798	-1.2817	0.5383	-22.9724	74.8334	50.8000 
615.511	0.1870	-0.0420	0.6870	2.4414	10.7422	0.0000	0.5328	-22.8186	74.8663	50.7600 
615.511	0.2046	-0.0537	0.7183	4.0283	10.0708	0.4883	0.5383	-22.6758	74.9158	50.8000 
615.511	0.2329	-0.0176	0.7603	6.6528	10.2539	1.5869	0.5713	-22.5385	74.9652	50.7100 
615.527	0.2759	-0.0112	0.7930	8.9722	9.7046	5.2490	0.6207	-22.4176	75.0366	50.7100 
615.558	0.3047	0.0225	0.8379	11.4136	6.5918	11.3525	0.6921	-22.3297	75.1520	50.9500 
615.558	0.3394	0.0366	0.8706	13.5498	0.1221	15.8691	0.7690	-22.3022	75.3113	50.8000 
615.589	0.3584	0.0566	0.8818	15.2588	-8.4839	21.4233	0.8514	-22.3627	75.5255	50.7600 
615.589	0.3618	0.0581	0.8779	16.7847	-17.5781	27.5269	0.9283	-22.5220	75.7947	50.7100 
615.589	0.3442	0.0537	0.8638	17.7612	-27.7100	31.4331	0.9888	-22.7747	76.1188	50.7100 
615.589	0.3311	0.0283	0.8193	18.3105	-36.9873	36.4380	1.0382	-23.1207	76.4868	50.8000 
615.589	0.3223	-0.0264	0.7773	17.7002	-41.8701	37.0483	1.0492	-23.5327	76.8933	50.6100 
615.605	0.3281	-0.0493	0.7446	17.7612	-43.5181	34.7900	1.0437	-23.9667	77.3053	50.7600 
615.605	0.3696	-0.1133	0.7515	16.1743	-43.3350	34.5459	1.0052	-24.4226	77.7283	51.0400 
615.620	0.4106	-0.1323	0.7520	13.6108	-42.9077	31.9214	0.9393	-24.8840	78.1293	50.8000 
615.620	0.4429	-0.1445	0.7515	11.2305	-42.6636	31.4941	0.8459	-25.3455	78.5193	50.8000 
615.636	0.4604	-0.1626	0.7344	8.3008	-42.0532	32.7148	0.7141	-25.8124	78.9313	50.7100 
615.652	0.4390	-0.1616	0.6938	6.9580	-42.3584	35.2783	0.5438	-26.2738	79.3707	50.7100 
615.652	0.3765	-0.1294	0.6206	6.5918	-42.8467	40.2832	0.3461	-26.7407	79.8596	50.5600 
615.652	0.2842	-0.0835	0.5352	8.1177	-44.3726	46.5088	0.1373	-27.1912	80.4034	51.0400 
615.683	0.1875	-0.0239	0.3701	11.0474	-45.3491	52.4292	-0.0494	-27.6416	80.9967	50.8000 
615.683	0.1055	0.0757	0.1875	15.1367	-41.4429	58.6548	-0.1373	-28.0756	81.5680	50.7600 
615.714	-0.0459	0.2744	0.0835	20.6909	-31.8604	69.1528	0.1154	-28.4271	81.9910	50.8000 
615.730	-0.2700	0.3638	0.1084	21.6675	-27.4658	91.1255	0.4230	-28.6414	82.4963	50.8000 
615.730	-0.2148	0.1016	-0.0825	20.6909	-14.4043	69.6411	0.8679	-28.7732	82.8314	50.7600 
615.730	0.0220	0.0991	0.0898	19.8364	45.5933	27.6489	1.4008	-28.4491	82.9083	50.7600 
615.746	0.2930	0.0557	0.5356	12.4512	69.8242	6.1646	1.5436	-27.7844	82.9578	50.5600 
615.746	0.6138	-0.0791	0.8838	4.2114	84.8999	-3.1738	1.5710	-27.0154	82.9633	50.7600 
615.777	0.8091	-0.1592	1.3413	-3.9673	97.1069	-5.3101	1.5216	-26.0980	82.9413	50.5600 
615.777	0.9067	-0.2314	1.7686	-14.4653	93.8110	-7.9956	1.3788	-25.1697	82.9028	50.9000 
615.777	0.8223	-0.3418	2.0996	-26.1841	116.2720	-0.8545	1.0876	-24.0710	82.9193	50.9000 
615.824	0.6489	-0.3994	2.4546	-26.1230	99.2432	4.3945	0.7251	-22.9395	83.0072	50.7100 
615.824	0.5054	-0.3301	2.4014	-15.7471	22.5830	0.8545	0.4724	-22.4615	83.0731	50.9000 
615.824	0.5884	-0.2290	2.1729	-11.7798	-22.0947	-21.4233	0.3680	-22.5439	82.9083	50.9500 
615.824	0.7900	-0.1069	1.9131	-4.7607	-52.0630	-34.6680	0.4120	-22.9779	82.5513	50.9000 
615.855	1.0952	0.0996	1.3760	1.7090	-54.0771	-36.1328	0.5823	-23.6096	82.1393	50.9000 
615.855	1.1777	0.4287	1.1479	5.0049	-26.1230	-10.3760	0.7855	-24.0601	81.8591	50.7100 
615.886	1.0723	0.4263	1.1406	4.9438	-11.9629	16.7236	0.8734	-24.3292	81.9031	50.7600 
615.886	0.8716	0.4370	1.1865	4.3945	-4.5776	31.5552	0.8899	-24.4830	82.1228	50.8000 
615.918	0.5889	0.3130	1.2300	3.4180	-4.9438	30.5786	0.8624	-24.5544	82.3810	50.7100 
615.918	0.4546	0.2158	1.2397	4.2114	-9.5215	16.9678	0.8734	-24.6259	82.5183	50.6100 
615.918	0.4844	0.1938	1.2056	6.7749	-19.8364	5.9204	0.9503	-24.7797	82.5238	50.5600 
615.918	0.5356	0.2046	1.0835	8.5449	-31.0059	6.2256	1.0657	-25.0708	82.5018	50.7600 
615.933	0.5342	0.1748	0.9258	10.0098	-36.1328	14.0381	1.1646	-25.4498	82.5513	50.7100 
615.933	0.4595	0.0732	0.7822	10.0708	-36.1328	19.6533	1.2085	-25.8508	82.6941	50.6100 
615.933	0.3887	-0.0625	0.6631	8.6670	-33.1421	16.9067	1.1920	-26.2189	82.8754	50.9500 
615.965	0.3540	-0.1724	0.5498	7.0190	-25.8789	7.8125	1.1316	-26.5375	83.0347	50.9500 
615.965	0.3354	-0.2139	0.4707	5.3101	-18.1274	-2.7466	1.0547	-26.7902	83.1116	50.6100 
615.965	0.3193	-0.1978	0.4258	3.5400	-15.0757	-10.7422	0.9998	-27.0044	83.1061	50.8000 
616.011	0.3081	-0.1616	0.3730	1.4648	-16.7236	-15.0146	0.9668	-27.2351	83.0182	50.7100 
616.011	0.2441	-0.1514	0.3237	0.0610	-22.4609	-15.3198	0.9119	-27.5098	82.9303	50.6100 
616.011	0.1372	-0.1523	0.2544	-0.6714	-32.4097	-18.0054	0.8240	-27.8339	82.8589	50.7100 
616.011	0.0386	-0.1372	0.1279	-0.3052	-41.1377	-25.4517	0.6702	-28.2349	82.8259	50.6100 
616.027	-0.0234	-0.1089	-0.0303	0.1831	-42.4805	-32.7759	0.3076	-28.7677	82.8809	50.8000 
616.027	-0.0659	-0.0322	-0.1875	-0.5493	-37.0483	-37.2314	-0.2362	-29.3225	82.8094	50.6100 
616.042	-0.1025	-0.0098	-0.2979	-2.8687	-26.3062	-38.0859	-0.8185	-29.7455	82.6886	50.7600 
616.058	-0.2534	-0.0205	-0.1899	-6.8359	-11.2305	-30.0903	-0.6812	-29.8993	82.3865	50.7100 
616.058	-0.3232	-0.1895	-0.0518	-10.8643	0.9155	-45.9595	-1.2469	-30.0256	82.5513	50.9500 
616.089	-0.1504	-0.1953	0.1421	-15.7471	34.7900	-65.1245	-1.6095	-29.8059	82.4524	50.9000 
616.121	0.0586	-0.1240	0.6333	-21.6064	54.6265	-67.5659	-1.5491	-29.1412	81.7822	50.7600 
616.121	0.3638	-0.0244	1.1079	-26.4893	61.4014	-68.1763	-1.4337	-28.4821	80.9802	50.9500 
616.121	0.6196	0.1729	1.6636	-30.0903	78.4912	-57.7393	-1.3513	-27.7185	80.2167	50.7100 
616.121	0.7061	0.0576	2.4263	-27.3438	88.8062	-44.6167	-1.3458	-26.7902	79.6234	50.7100 
616.136	0.7910	0.1284	2.8569	-11.5356	43.7012	-41.6260	-1.2579	-26.1584	79.0851	50.9500 
616.136	0.8975	0.1416	2.6870	-1.2817	9.9487	-16.1133	-1.1481	-25.9552	78.7994	50.8000 
616.136	0.8955	0.0049	2.3066	-0.6714	-5.9814	2.1973	-1.1261	-25.9387	78.7610	50.7100 
616.152	0.8940	-0.0273	1.5801	-4.8218	-7.3853	15.9912	-1.2195	-26.0431	78.9038	50.7100 
616.183	0.8535	-0.2080	1.2207	-11.1084	21.0571	14.1602	-1.4282	-25.9497	79.1125	50.8000 
616.183	0.8516	-0.3140	1.3267	-16.1743	35.7666	2.9907	-1.6589	-25.6586	79.2224	50.8000 
616.183	0.8408	-0.2827	1.5190	-20.6909	19.0430	-6.1646	-1.8896	-25.4333	79.2224	50.8000 
616.183	0.8008	-0.2104	1.4595	-21.0571	-10.9253	-15.8691	-2.0764	-25.4938	79.1125	50.7100 
616.199	0.7803	-0.1084	1.2065	-17.8223	-26.4893	-18.6768	-2.2028	-25.7794	78.9478	50.7100 
616.199	0.7598	-0.0469	0.9946	-12.3901	-24.9634	-15.6860	-2.2687	-26.1090	78.7885	50.9500 
616.199	0.6987	-0.0220	0.8906	-6.6528	-16.1743	-14.5874	-2.2797	-26.3672	78.6456	50.5600 
616.230	0.5967	-0.0063	0.8809	-1.6479	-11.1694	-14.4653	-2.2247	-26.5485	78.4918	50.7100 
616.246	0.4829	0.0210	0.8628	2.5024	-9.3384	-16.6016	-2.1094	-26.6748	78.3105	50.7100 
616.246	0.3892	0.0903	0.8350	4.1504	-10.3760	-17.2729	-1.9446	-26.7737	78.0963	50.7100 
616.261	0.3345	0.1655	0.7632	5.1270	-11.2915	-11.0474	-1.7523	-26.8781	77.8931	50.5600 
616.277	0.2876	0.2168	0.6899	5.2490	-9.4604	1.4038	-1.5765	-26.9604	77.7887	50.7600 
616.324	0.2476	0.2173	0.6362	4.8218	-9.2163	17.2729	-1.4667	-27.0264	77.8381	50.7100 
616.324	0.1973	0.1831	0.5981	4.8218	-8.7891	30.2124	-1.4337	-27.0703	78.0414	50.6100 
616.324	0.1318	0.1284	0.5815	5.4932	-11.9019	42.5415	-1.4832	-27.0978	78.3929	50.7100 
616.324	0.0903	0.1162	0.5269	4.5166	-17.7002	50.5981	-1.5875	-27.1582	78.8434	50.5200 
616.339	0.0737	0.0654	0.4526	2.5635	-22.5830	56.7627	-1.7633	-27.2571	79.3817	50.5600 
616.339	0.0796	0.0020	0.3848	-0.7935	-24.6582	59.7534	-2.0380	-27.3834	80.0134	50.8000 
616.339	0.0830	-0.0342	0.3208	-3.1128	-24.5972	62.0117	-2.3950	-27.5208	80.7166	50.5600 
616.355	0.0723	-0.0669	0.2349	-4.5166	-23.8037	65.5518	-2.8510	-27.6746	81.5131	50.7600 
616.371	0.0161	-0.0928	0.1396	-3.6011	-20.8130	70.1904	-3.4442	-27.7789	82.4908	50.7100 
616.371	-0.0410	-0.1299	0.0288	-2.1362	-17.3340	71.1670	-4.2957	-27.9053	83.7323	50.7600 
616.371	-0.0801	-0.1338	-0.0767	1.4648	-11.4136	69.1528	-5.3119	-28.0811	85.0067	50.9000 
616.402	-0.1016	-0.1055	-0.1426	5.4932	-4.3335	66.4673	-6.3501	-28.1909	86.2152	50.8000 
616.434	-0.1323	0.0791	-0.1133	10.4370	5.5542	63.9648	-6.5973	-28.1305	86.9183	50.5200 
616.434	-0.2324	0.1548	0.1597	7.6294	9.7656	72.8149	-6.2952	-27.8778	87.1436	50.5600 
616.434	-0.0420	-0.0815	0.2549	6.5308	14.3433	40.5273	-6.3666	-27.4988	87.4677	50.7600 
616.434	0.3291	-0.0244	0.6187	6.4697	42.8467	0.8545	-6.3281	-27.1088	87.5006	50.6100 
616.465	0.7593	-0.0781	1.2461	7.6294	49.4385	-25.3906	-6.1139	-26.6693	87.1930	50.7600 
616.465	1.1904	0.0781	2.0669	15.6860	56.2134	-49.2554	-5.6964	-26.2024	86.5778	50.6100 
616.511	1.1240	0.1030	2.7847	16.5405	20.5078	-21.1792	-5.3119	-25.8783	86.1438	50.5200 
616.511	0.8311	0.0508	2.2690	19.4092	-48.7671	20.0195	-5.1471	-26.1584	86.2262	50.7100 
616.511	0.7217	-0.1128	1.0488	16.4795	-38.8184	44.1284	-5.1746	-26.6418	86.6931	50.6100 
616.511	0.5952	-0.1680	0.9976	4.7607	38.5742	39.1846	-5.3119	-26.4441	87.1326	50.5600 
616.542	0.7007	-0.3486	1.9277	-6.4087	61.1572	12.7563	-5.4602	-25.7849	87.2919	50.5200 
616.542	0.9375	-0.4277	2.3428	-5.6152	16.7236	-13.9160	-5.5096	-25.4663	87.1820	50.5600 
616.542	1.1079	-0.1045	1.7397	0.7935	-25.6958	-28.9307	-5.3998	-25.6970	86.8744	50.7100 
616.542	1.0923	0.1255	1.1743	0.3662	-14.8926	-4.0894	-5.3009	-25.9937	86.7316	50.8000 
616.558	0.9639	0.2153	1.0693	-3.1738	4.2114	18.6768	-5.3174	-26.0925	86.8085	50.6100 
616.558	0.7671	0.2773	1.1885	-3.8452	6.4697	36.3770	-5.4108	-26.0486	87.0612	50.5200 
616.558	0.5234	0.2197	1.2471	-1.5259	-8.1787	41.8701	-5.5426	-26.0596	87.4182	50.5600 
616.574	0.4404	0.1138	1.1543	1.6479	-18.8599	32.9590	-5.6360	-26.1694	87.7313	50.6100 
616.589	0.4990	0.0391	1.0088	2.3804	-21.3013	21.5454	-5.6854	-26.3452	87.9510	50.5200 
616.589	0.6177	-0.0083	0.9175	2.9297	-21.9727	14.4653	-5.7129	-26.5869	88.0994	50.5600 
616.605	0.7070	-0.0347	0.8745	4.0894	-22.7661	14.2822	-5.7349	-26.8616	88.2422	50.7100 
616.605	0.6865	-0.0757	0.8511	3.9673	-25.4517	16.7236	-5.7843	-27.1637	88.4235	50.8000 
616.621	0.5874	-0.1592	0.8252	3.2959	-30.0293	14.7095	-5.8722	-27.4878	88.6267	50.5600 
616.636	0.4717	-0.2407	0.7695	1.5259	-34.8511	7.2021	-5.9766	-27.8394	88.7915	50.7100 
616.636	0.3521	-0.2803	0.6816	-1.5259	-38.5132	-2.9297	-6.0919	-28.2129	88.8849	50.5200 
616.652	0.2471	-0.3076	0.5576	-4.0283	-40.7715	-14.1602	-6.2238	-28.6029	88.9069	50.7100 
616.668	0.1860	-0.3008	0.3984	-6.1035	-40.7104	-25.8789	-6.3666	-29.0149	88.8409	50.7100 
616.668	0.1406	-0.2437	0.2363	-6.3477	-37.4146	-35.2173	-6.4984	-29.4379	88.6981	50.5200 
616.668	0.0845	-0.1733	0.0874	-6.2866	-33.8135	-40.1611	-6.6632	-29.8828	88.5223	50.7100 
616.683	0.0386	-0.1099	-0.0815	-6.2866	-26.1841	-43.4570	-7.0203	-30.4156	88.3246	50.5200 
616.714	-0.0244	-0.0522	-0.2017	-6.1646	-13.4888	-43.0298	-7.5751	-30.7837	88.1104	50.7600 
616.714	-0.1470	-0.0620	-0.2104	-5.8594	0.0000	-39.3066	-8.1848	-30.9485	88.0609	50.7100 
616.746	-0.2715	-0.1147	-0.1338	-5.9814	11.7188	-46.4478	-8.7286	-30.9650	88.0994	50.6100 
616.746	-0.2603	-0.1509	-0.0151	-8.6060	31.1279	-58.4717	-9.1626	-30.8057	88.0609	50.5600 
616.746	-0.1387	-0.0762	0.2568	-10.3149	54.4434	-71.4722	-9.1626	-30.2399	87.6379	50.6100 
616.746	0.0757	-0.0107	0.6040	-11.4746	70.9839	-78.0640	-8.7286	-29.5258	86.5942	50.5200 
616.777	0.3159	0.0679	0.9863	-10.4370	82.8247	-78.6133	-8.2562	-28.7787	85.4956	50.5600 
616.777	0.5063	0.1724	1.4263	-6.5308	86.9141	-71.5332	-7.7783	-27.9767	84.4574	50.5200 
616.777	0.7109	0.2061	1.8379	4.5166	88.9282	-69.5190	-7.2510	-27.1692	83.4851	50.6100 
616.792	0.9351	0.1382	2.3794	10.2539	105.6519	-69.5190	-6.6742	-26.2134	82.5183	50.6100 
616.792	0.9604	0.1909	2.7666	11.2305	77.6978	-53.8940	-6.1633	-25.3674	81.7053	50.4200 
616.808	0.7549	0.0444	2.6924	6.2866	23.6816	-17.9443	-5.8887	-24.9774	81.3538	50.7100 
616.839	0.6929	-0.0854	2.1572	-1.7700	-31.9214	-13.8550	-5.8173	-25.1147	81.2000	50.5600 
616.839	0.8569	-0.1475	1.2642	-9.6436	-38.6963	-15.7471	-5.8392	-25.5817	81.1121	50.6100 
616.855	0.9683	-0.0586	1.0483	-13.3057	-1.2207	-10.7422	-5.8887	-25.7794	80.9747	50.8000 
616.855	0.9902	-0.1353	1.1807	-13.4277	8.1787	-7.5684	-5.9821	-25.8014	80.9033	50.5200 
616.886	0.9058	-0.1592	1.2695	-10.6812	-4.0894	-9.8267	-6.0590	-25.8783	80.8264	50.7100 
616.886	0.7163	-0.1812	1.2183	-6.9580	-14.8315	-19.9585	-6.0699	-26.0541	80.6781	50.2800 
616.886	0.5898	-0.1265	1.1353	-5.3711	-18.8599	-28.2593	-6.0150	-26.2738	80.4309	50.3700 
616.886	0.5806	-0.0664	1.0469	-4.7607	-18.1274	-33.0811	-5.9052	-26.4990	80.1068	50.5200 
616.918	0.5928	-0.0083	0.9990	-4.6387	-14.9536	-30.8838	-5.7678	-26.7133	79.7717	50.5200 
616.918	0.5879	0.0083	0.9717	-3.2959	-13.9160	-23.7427	-5.6470	-26.9000	79.4971	50.5600 
616.918	0.5469	0.0210	0.9390	-1.8311	-15.2588	-16.2964	-5.5481	-27.0868	79.3048	50.6100 
616.949	0.4453	0.0527	0.8936	-1.4648	-18.5547	-7.4463	-5.4712	-27.2736	79.1949	50.4200 
616.949	0.3301	0.0923	0.8130	-2.3193	-23.6816	2.1973	-5.4272	-27.4768	79.1840	50.5600 
616.949	0.2319	0.1167	0.6924	-3.2349	-25.8179	11.5356	-5.4272	-27.6746	79.2554	50.5600 
616.964	0.1631	0.1250	0.5625	-4.6387	-23.3765	18.8599	-5.4547	-27.8448	79.3927	50.6100 
616.996	0.1548	0.1187	0.4541	-4.8218	-16.3574	24.6582	-5.5096	-27.9547	79.5850	50.6100 
616.996	0.1636	0.1362	0.3931	-4.0894	-10.4370	30.2734	-5.5591	-28.0151	79.8212	50.5600 
616.996	0.1392	0.1665	0.3555	-2.7466	-12.2681	41.3208	-5.6140	-28.0756	80.1343	50.6100 
617.011	0.1108	0.1450	0.2939	-0.8545	-15.7471	52.0630	-5.6964	-28.1525	80.5627	50.7100 
617.011	0.0859	0.1113	0.2065	1.6479	-19.6533	62.3169	-5.8008	-28.2678	81.1121	50.4200 
617.027	0.0220	0.0928	0.1069	3.9673	-23.9258	74.0967	-5.8832	-28.3997	81.7328	50.7100 
617.027	-0.0591	0.0488	-0.0190	4.7607	-22.8882	83.0078	-5.7019	-28.4875	82.2437	50.5600 
617.027	-0.1309	-0.0269	-0.1138	6.0425	-13.6719	85.7544	-6.1139	-28.5645	83.2379	50.7100 
617.043	-0.1777	-0.0527	-0.1816	7.5684	-1.0376	81.5430	-7.2565	-28.6029	84.6606	50.5600 
617.043	-0.2480	0.0845	-0.1523	8.4229	16.4795	78.1860	-7.5916	-28.3942	85.5066	50.6100 
617.058	-0.3027	-0.0220	0.0210	3.4180	19.5923	76.4160	-7.9321	-28.0811	86.4130	50.5600 
617.074	-0.0605	-0.1763	0.0176	5.6763	47.0581	33.0811	-8.6737	-27.6526	87.3798	50.5600 
617.090	0.2070	-0.0903	0.4819	5.4321	83.0688	0.3662	-8.6737	-26.8561	87.3798	50.6100 
617.090	0.4692	-0.1035	1.0771	8.1787	85.9985	-15.0146	-8.4595	-25.9991	87.0667	50.5200 
617.121	0.8584	-0.2764	1.7378	17.0288	78.9795	-32.0435	-8.1354	-25.2411	86.6382	50.4200 
617.121	1.2393	-0.0723	2.5522	40.9546	95.6421	-80.6274	-7.3938	-24.4720	85.7208	50.5200 
617.121	1.0767	0.2383	3.1567	32.7759	74.2188	-12.7563	-6.7126	-23.6206	85.1056	50.5200 
617.152	0.5752	-0.0981	2.4321	13.7939	-7.9346	45.7153	-6.6577	-23.4338	85.4846	50.7100 
617.152	0.3389	0.0615	1.5195	4.6387	-10.9863	39.3066	-6.7291	-23.4558	85.8966	50.5600 
617.152	0.3574	0.0845	1.2632	-0.7935	1.7700	13.3667	-6.7456	-23.4009	86.0504	50.7100 
617.168	0.6436	0.1704	1.5249	-6.9580	1.3428	-7.0190	-6.7072	-23.3679	85.9296	50.5200 
617.168	1.0513	0.1006	1.7588	-4.2114	-17.5781	-11.1084	-6.6632	-23.5437	85.7813	50.7100 
617.168	1.2314	0.2021	1.5615	7.6904	-27.0996	4.5166	-6.5643	-23.8788	85.7538	50.7100 
617.199	1.0435	0.2905	1.2388	16.8457	-18.6768	33.5083	-6.4545	-24.1754	86.0010	50.5600 
617.199	0.7344	0.2446	1.1226	15.4419	5.0049	48.0957	-6.3940	-24.2084	86.4240	50.6100 
617.230	0.5474	0.1641	1.2163	11.5356	13.3667	47.1191	-6.3885	-24.0436	86.8469	50.7100 
617.246	0.4780	0.0938	1.2920	9.3994	1.8921	40.8325	-6.4050	-23.9337	87.2314	50.5600 
617.246	0.4683	0.0073	1.2295	8.1177	-13.3057	34.7290	-6.4380	-23.9722	87.5830	50.4200 
617.246	0.4951	-0.0537	1.0986	7.9346	-22.5830	27.7100	-6.4709	-24.1425	87.8851	50.7100 
617.261	0.4990	-0.0859	0.9707	7.1411	-27.2827	19.7754	-6.4984	-24.3951	88.1268	50.5600 
617.261	0.5195	-0.1069	0.9121	6.9580	-29.7241	12.6953	-6.5039	-24.6973	88.2971	50.5200 
617.261	0.5352	-0.1245	0.8569	6.3477	-31.6772	4.7607	-6.4984	-25.0378	88.4015	50.6100 
617.293	0.5322	-0.1426	0.8159	5.4932	-35.1563	-4.6387	-6.4655	-25.4224	88.4125	50.4200 
617.293	0.5215	-0.1846	0.7471	4.6387	-37.9639	-13.7939	-6.4215	-25.8508	88.3356	50.5600 
617.293	0.4575	-0.2051	0.6650	2.8076	-43.1519	-21.1182	-6.3721	-26.3342	88.1927	50.5600 
617.324	0.3403	-0.2041	0.5757	0.4883	-53.4668	-25.5127	-6.3391	-26.8890	88.0170	50.5600 
617.371	0.1880	-0.1743	0.3721	-1.8921	-63.5376	-26.4282	-6.3556	-27.5262	87.8632	50.7600 
617.371	0.0513	-0.1616	0.1196	-5.5542	-67.1387	-26.2451	-6.5369	-28.2129	87.8247	50.5600 
617.371	-0.0474	-0.1338	-0.1680	-8.9111	-59.8145	-27.5879	-7.1411	-28.9709	87.9456	50.5200 
617.371	-0.1328	-0.1133	-0.4204	-12.3291	-43.7012	-27.7100	-7.9047	-29.5807	88.0334	50.5200 
617.371	-0.1890	-0.0938	-0.5923	-12.5732	-13.6108	-29.7241	-8.6627	-29.9213	88.0609	50.5600 
617.371	-0.2900	-0.0977	-0.4644	-13.1226	14.8315	-25.6958	-9.4043	-29.9323	88.1213	50.5200 
617.386	-0.4043	-0.2061	-0.3022	-12.3291	22.8882	-32.1655	-10.1074	-29.8169	88.2697	50.2800 
617.386	-0.3379	-0.2192	-0.2144	-8.4229	42.5415	-57.9834	-10.6128	-29.5862	88.1543	50.5600 
617.386	-0.1543	-0.0815	0.1465	-8.9111	74.8901	-69.4580	-10.8051	-28.9490	87.8467	50.5600 
617.418	0.0527	0.0068	0.6094	-9.3994	87.7686	-71.6553	-10.3601	-28.0701	86.7920	50.5200 
617.418	0.3354	0.1162	1.0903	-7.7515	96.7407	-72.1436	-9.8822	-27.2076	85.7153	50.5200 
617.449	0.5991	0.3521	1.7686	-1.6479	109.6802	-67.1997	-9.3604	-26.2299	84.6497	50.4200 
617.449	0.9185	0.4111	2.6025	10.7422	113.8306	-52.6733	-8.8000	-25.1862	83.7433	50.5200 
617.480	0.9961	0.4365	3.2915	12.4512	107.7271	-28.0762	-8.3661	-24.0765	83.1281	50.5600 
617.480	0.6909	0.5396	2.8115	23.4375	0.3052	22.9492	-8.0365	-23.7524	83.0896	50.3700 
617.496	0.6494	0.0054	2.0215	19.6533	-24.4751	32.5317	-7.9102	-23.8953	83.4247	50.3700 
617.496	0.5635	-0.2090	1.5278	7.3853	-21.9727	24.9634	-7.9266	-24.0601	83.7543	50.5600 
617.527	0.6499	-0.2617	1.1440	-0.4883	-3.1738	12.0239	-8.0145	-24.1425	83.9575	50.5600 
617.527	0.7500	-0.2256	1.0215	-2.0752	15.0757	10.7422	-8.0969	-24.0820	84.0784	50.5600 
617.527	0.7793	-0.2241	1.1011	-0.0610	22.2168	10.0098	-8.1464	-23.9172	84.1772	50.5600 
617.574	0.7222	-0.2183	1.2202	2.0142	14.1602	3.1128	-8.1573	-23.7909	84.2267	50.5200 
617.574	0.6021	-0.2021	1.2402	3.1128	-1.4648	-6.1035	-8.1189	-23.7909	84.1937	50.4200 
617.589	0.4917	-0.1436	1.1567	3.2349	-14.7095	-9.3384	-8.0475	-23.9172	84.1223	50.3700 
617.589	0.4375	-0.0908	1.0527	3.9063	-21.4844	-10.6201	-7.9651	-24.1205	84.0399	50.5600 
617.589	0.4253	-0.0454	0.9673	2.6245	-23.0103	-12.3291	-7.8662	-24.3567	83.9301	50.3700 
617.589	0.4316	-0.0225	0.9229	1.8921	-22.0337	-13.4277	-7.7618	-24.5984	83.7982	50.5600 
617.605	0.4419	0.0093	0.9185	0.6104	-23.8037	-12.8174	-7.6575	-24.8511	83.6609	50.5600 
617.605	0.4307	0.0444	0.8950	-0.4272	-27.7710	-7.9346	-7.5751	-25.1367	83.5620	50.5600 
617.605	0.3779	0.0869	0.8760	-1.6479	-31.7383	0.9155	-7.5256	-25.4443	83.5400	50.5200 
617.621	0.3208	0.0962	0.8428	-2.3804	-33.8745	10.4370	-7.5201	-25.7465	83.6169	50.5600 
617.621	0.2764	0.1016	0.8237	-0.8545	-36.8652	17.9443	-7.5421	-26.0431	83.7817	50.5200 
617.636	0.2622	0.1069	0.7871	0.6104	-39.1846	22.3999	-7.5696	-26.3617	84.0015	50.5600 
617.652	0.2715	0.1069	0.7358	2.2583	-41.5039	25.4517	-7.5970	-26.6968	84.2596	50.3700 
617.668	0.2690	0.1040	0.6631	3.7842	-46.2646	32.1045	-7.6465	-27.0813	84.5837	50.5200 
617.668	0.2227	0.0947	0.5254	4.3945	-49.5605	41.8091	-7.7289	-27.4988	85.0122	50.6100 
617.699	0.1382	0.0781	0.3662	5.1270	-49.3774	52.9785	-7.8552	-27.8943	85.5450	50.2300 
617.699	0.0596	0.0513	0.1826	6.7749	-44.4946	62.1948	-7.9926	-28.2294	86.1658	50.5600 
617.699	-0.0088	0.0220	0.0063	8.4229	-33.2642	67.3218	-7.9102	-28.4601	86.6656	50.5200 
617.730	-0.0879	0.0864	-0.0933	10.7422	-18.9819	68.7866	-7.4213	-28.5809	87.0612	50.5600 
617.730	-0.2319	0.1201	-0.0474	9.8877	-11.4136	74.7681	-7.0093	-28.5754	87.3743	50.4200 
617.762	-0.2070	-0.0801	-0.1011	10.0098	-2.9907	54.8706	-7.2565	-28.5645	88.0554	50.5200 
617.762	-0.0645	-0.0811	0.0469	10.3760	24.3530	25.3906	-7.9047	-28.3063	88.9288	50.5200 
617.762	0.1323	-0.0503	0.4063	6.1646	41.5649	1.5259	-7.8662	-27.8284	88.9563	50.4200 
617.777	0.4131	-0.0684	0.7891	2.7466	54.2603	-15.0757	-7.7289	-27.3285	88.7256	50.3700 
617.777	0.7515	-0.0859	1.3813	3.6011	71.1670	-29.9683	-7.4982	-26.7078	88.3026	50.3700 
617.777	1.0630	-0.0278	2.3296	8.7891	74.6460	-42.8467	-7.1301	-26.0211	87.6929	50.5200 
617.809	1.0068	0.0000	2.9912	5.2490	29.9072	-18.1885	-6.8829	-25.5597	87.3029	50.3700 
617.809	0.6919	0.2227	2.0913	9.4604	-63.9648	31.7993	-6.8335	-25.9387	87.4951	50.4200 
617.840	0.5903	0.0708	0.9800	4.9438	-29.7852	36.7432	-6.9214	-26.3617	87.9181	50.3700 
617.840	0.5254	0.0835	1.1646	-3.1128	20.0195	32.7148	-7.0203	-26.2189	88.2147	50.5200 
617.840	0.7358	-0.0674	1.6987	-4.5776	22.5830	14.7095	-7.1082	-25.9332	88.3466	50.4200 
617.871	0.9355	-0.0366	1.7266	1.0986	-3.5400	0.3052	-7.0972	-25.9058	88.3466	50.2800 
617.871	0.9351	0.1392	1.3691	6.6528	-17.7002	4.3945	-6.9983	-26.1090	88.3356	50.5200 
617.871	0.8174	0.2183	1.1323	6.2866	-12.0239	12.2070	-6.9049	-26.2958	88.3960	50.3700 
617.902	0.7461	0.2720	1.0869	3.5400	-0.4272	19.4092	-6.8445	-26.3672	88.5059	50.3700 
617.902	0.6699	0.2798	1.1338	2.0142	-1.5259	28.8696	-6.8335	-26.3837	88.7036	50.5600 
617.902	0.5669	0.2319	1.1240	3.6011	-8.7891	38.3301	-6.8719	-26.4276	89.0112	50.5600 
617.902	0.5039	0.1138	1.0537	6.5308	-14.4043	37.5977	-6.9269	-26.5155	89.3683	50.5200 
617.933	0.5020	0.0083	0.9570	7.1411	-14.4653	28.3203	-6.9653	-26.6309	89.6704	50.5600 
617.933	0.5249	-0.0234	0.9185	7.9346	-15.8691	17.8223	-6.9653	-26.7792	89.8627	50.5600 
617.933	0.5356	-0.0493	0.8755	8.1177	-18.9819	11.8408	-6.9379	-26.9714	89.9890	50.4200 
617.965	0.4932	-0.0869	0.8174	6.8359	-22.6440	6.6528	-6.9104	-27.2021	90.0769	50.4200 
617.965	0.4063	-0.1606	0.7285	4.0283	-25.6348	0.4272	-6.9104	-27.4603	90.1263	50.3700 
617.965	0.3325	-0.2515	0.6211	0.4883	-25.7568	-8.9722	-6.9543	-27.7240	90.1208	50.3700 
617.965	0.2900	-0.3145	0.5117	-2.6245	-23.0713	-22.5220	-7.0258	-27.9877	90.0275	50.4200 
617.996	0.2925	-0.2881	0.4365	-5.2490	-20.6299	-36.2549	-7.0697	-28.2568	89.7858	50.5200 
617.996	0.3252	-0.2026	0.3867	-6.3477	-20.6909	-46.1426	-7.0313	-28.5590	89.3903	50.2800 
617.996	0.3320	-0.0957	0.3198	-7.1411	-26.0620	-49.0112	-6.9214	-28.9490	88.8959	50.2800 
618.028	0.2754	-0.0327	0.1890	-6.7139	-31.4941	-46.3257	-6.7676	-29.4434	88.3960	50.5200 
618.028	0.1602	-0.0327	0.0156	-8.3008	-29.9683	-42.2363	-6.6852	-30.0531	87.9510	50.5200 
618.059	0.0186	-0.0586	-0.1221	-10.0098	-20.6299	-37.6587	-7.0917	-30.6189	87.6819	50.5200 
618.059	-0.1650	-0.1377	-0.1367	-12.4512	-8.6670	-34.2407	-7.7673	-30.8606	87.7588	50.3700 
618.090	-0.2886	-0.2251	-0.1255	-14.4043	0.5493	-44.2505	-8.3826	-30.9705	87.8522	50.2300 
618.090	-0.2769	-0.2437	-0.0957	-16.7236	18.0054	-59.4482	-8.9099	-30.9540	87.7698	50.2800 
618.090	-0.1685	-0.1260	0.0820	-18.6768	44.0674	-68.7866	-9.2780	-30.6464	87.5665	50.3700 
618.090	0.0210	-0.0229	0.3975	-19.7144	64.8193	-71.6553	-9.0363	-29.9487	86.6821	50.5200 
618.136	0.2290	0.0835	0.7368	-19.8364	78.6743	-67.6270	-8.6847	-29.2346	85.6769	50.5200 
618.136	0.4106	0.1748	1.1421	-18.0664	88.1958	-59.4482	-8.3496	-28.4271	84.7485	50.5600 
618.136	0.6084	0.2988	1.5596	-12.5122	88.5620	-49.0723	-8.0365	-27.5867	83.9355	50.5200 
618.168	0.9697	0.3213	2.1079	-5.0659	104.3091	-50.9644	-7.6794	-26.6748	83.1665	50.7100 
618.168	1.1890	0.2842	3.1587	-2.3804	147.8882	-48.5229	-7.2839	-25.3400	82.3425	50.2300 
618.168	0.6895	0.3345	3.5391	5.2490	63.5376	23.2544	-7.1191	-24.3567	82.1722	50.2300 
618.168	0.3853	-0.0537	2.7354	6.1646	-52.3682	34.2407	-7.2015	-24.4720	82.5732	50.2300 
618.168	0.3442	-0.1489	1.5732	-0.5493	-85.8154	15.1367	-7.3004	-25.1971	82.9193	50.3700 
618.168	0.4883	-0.2095	1.0103	-7.1411	-56.2134	-12.2070	-7.3883	-25.8179	82.9742	50.5600 
618.200	0.7158	-0.1611	0.9453	-9.5215	-40.5273	-21.0571	-7.4268	-26.3177	82.8424	50.5600 
618.200	0.8340	-0.1890	0.9116	-9.3384	-43.5181	-19.1040	-7.4707	-26.8561	82.7271	50.5600 
618.200	0.7988	-0.1831	0.7998	-7.0190	-36.3159	-18.2495	-7.4982	-27.3669	82.6172	50.4200 
618.230	0.6768	-0.1665	0.7700	-6.6528	-20.4468	-18.1274	-7.5092	-27.7185	82.4908	50.2300 
618.230	0.6104	-0.1675	0.8560	-6.3477	-6.6528	-22.2168	-7.4872	-27.8943	82.2986	50.4200 
618.230	0.6123	-0.1309	1.0244	-5.4932	-2.0752	-23.7427	-7.4268	-27.9712	82.0569	50.3700 
618.230	0.6338	-0.0962	1.1563	-3.9063	-6.2866	-21.8506	-7.3444	-28.0536	81.8207	50.2800 
618.246	0.6084	-0.0352	1.2319	-1.4648	-16.2964	-14.4043	-7.2565	-28.2019	81.6449	50.5200 
618.277	0.5166	0.0298	1.1895	0.6714	-29.1748	-3.0518	-7.1906	-28.4436	81.5845	50.2300 
618.293	0.3843	0.0903	1.0864	0.8545	-40.9546	8.3618	-7.1631	-28.7732	81.6504	50.4200 
618.293	0.2739	0.1270	0.9390	0.3662	-48.3398	18.0054	-7.1796	-29.1522	81.8207	50.3700 
618.293	0.1948	0.1543	0.7495	-1.4648	-51.7578	25.7568	-7.2400	-29.5532	82.0624	50.4200 
618.293	0.1460	0.1826	0.5537	-2.2583	-50.2930	33.2031	-7.3059	-29.9487	82.3535	50.4200 
618.340	0.1172	0.1841	0.3491	-2.0752	-43.2739	41.0767	-7.3663	-30.3058	82.6941	50.3700 
618.340	0.1113	0.1694	0.1582	0.3052	-32.1045	47.7295	-7.3718	-30.6244	83.0731	50.2800 
618.371	0.1035	0.1533	0.0244	4.6387	-16.7236	55.2979	-7.2729	-30.9100	83.5181	50.4200 
618.371	0.0801	0.1118	-0.0376	9.4604	-2.3193	62.5610	-7.0752	-31.1353	84.0619	50.2300 
618.371	0.0322	0.0444	-0.0542	13.9771	6.7139	67.0166	-6.7401	-31.2341	84.6991	50.4200 
618.371	-0.0210	0.0098	-0.0527	17.7002	11.5356	66.1011	-6.9434	-31.0583	85.3748	50.2300 
618.371	-0.1416	0.1968	0.0356	16.7236	17.2729	70.1904	-6.4764	-30.7892	85.6329	50.1800 
618.371	-0.2031	0.0039	0.1157	11.3525	9.3994	72.8149	-6.2292	-30.4651	85.8252	50.5200 
618.402	-0.0527	-0.0527	0.1450	10.9253	24.3530	41.5649	-6.7236	-30.0586	86.7920	50.5200 
618.402	0.1230	-0.0063	0.4399	6.6528	41.5039	20.1416	-6.7181	-29.5422	86.9513	50.5200 
618.402	0.3174	-0.0156	0.7319	2.5024	47.3633	11.0474	-6.6852	-29.0259	86.9678	50.0800 
618.418	0.5107	-0.1069	1.0288	2.4414	54.5654	6.1035	-6.6577	-28.4766	86.9458	50.2300 
618.418	0.7495	-0.1748	1.3936	3.7842	68.8477	-5.0659	-6.5808	-27.8339	86.8140	50.3700 
618.418	1.0557	-0.1455	1.9233	5.8594	90.8203	-20.6299	-6.3776	-27.0264	86.4789	50.3700 
618.449	1.0117	-0.1123	2.3389	-2.0142	109.6191	9.1553	-6.2842	-25.9497	86.2811	50.3700 
618.496	0.6270	-0.0562	2.3369	-3.5400	75.6836	39.6118	-6.4050	-24.9994	86.4954	50.2800 
618.496	0.4077	0.0063	2.1494	-1.7700	16.1133	35.1563	-6.5369	-24.5709	86.8030	50.5200 
618.496	0.5327	0.0366	1.9517	0.7935	-26.0620	8.1787	-6.5588	-24.6698	86.8964	50.0800 
618.496	0.7896	0.0703	1.8345	3.8452	-55.3589	-4.6387	-6.4929	-25.1367	86.8469	50.4200 
618.543	1.0239	0.1255	1.5400	8.6060	-71.6553	-2.8076	-6.3776	-25.8673	86.8250	50.1800 
618.543	1.1460	0.2739	1.1665	13.1226	-51.9409	7.9956	-6.2347	-26.5540	86.8689	50.2300 
618.543	1.0332	0.3696	1.0347	13.1836	-19.3481	30.8838	-6.1304	-26.9165	87.0831	50.4200 
618.575	0.8223	0.3188	1.0864	10.3149	4.2725	49.3774	-6.1304	-26.9604	87.4841	50.3700 
618.575	0.6230	0.1748	1.1846	7.6294	10.0708	52.1851	-6.2128	-26.8396	87.9510	50.3700 
618.575	0.4873	0.0513	1.2134	6.8970	2.9907	43.6401	-6.3116	-26.7188	88.3685	50.3700 
618.575	0.4546	-0.0029	1.1567	7.3242	-8.0566	32.3486	-6.3721	-26.7078	88.6926	50.2800 
618.606	0.4678	-0.0127	1.0220	7.2021	-16.6016	23.8037	-6.3995	-26.8066	88.9288	50.3700 
618.606	0.4795	-0.0098	0.8765	7.3242	-18.4326	18.9209	-6.3995	-26.9769	89.1046	50.5600 
618.606	0.4609	-0.0161	0.7598	6.8359	-17.0898	16.4795	-6.3995	-27.1582	89.2584	50.3700 
618.637	0.4038	-0.0728	0.6729	5.6152	-15.0757	15.2588	-6.4215	-27.3175	89.4067	50.0800 
618.637	0.3252	-0.1606	0.6147	4.6387	-12.7563	9.4604	-6.4709	-27.4438	89.5496	50.5200 
618.637	0.2646	-0.2368	0.5762	3.4180	-11.6577	-2.7466	-6.5369	-27.5427	89.6045	50.3700 
618.637	0.2349	-0.2920	0.5327	2.1362	-14.7095	-16.2354	-6.5863	-27.6746	89.5660	50.3700 
618.637	0.2197	-0.2690	0.4722	2.0142	-19.1650	-28.5645	-6.5863	-27.8613	89.3903	50.5200 
618.668	0.2026	-0.1978	0.3872	2.2583	-24.7192	-36.3770	-6.5259	-28.1195	89.1101	50.5200 
618.668	0.1641	-0.1313	0.2778	2.1973	-30.9448	-37.8418	-6.4380	-28.4601	88.7915	50.2800 
618.699	0.1040	-0.0684	0.1504	2.3804	-34.3018	-35.7056	-6.3446	-28.8556	88.4839	50.3700 
618.699	0.0254	-0.0337	0.0151	0.9766	-34.3018	-31.9214	-6.3776	-29.3225	88.2751	50.2800 
618.699	-0.0459	0.0059	-0.1172	-0.4272	-27.5879	-29.2358	-7.0093	-29.7290	88.2916	50.4200 
618.699	-0.1260	-0.0010	-0.1934	-1.4038	-17.1509	-23.7427	-7.6794	-30.0201	88.4235	50.2300 
618.715	-0.2695	-0.0850	-0.1069	-3.2349	-5.7983	-19.2871	-8.3551	-30.1794	88.7640	50.2800 
618.730	-0.3203	-0.1655	-0.0830	-4.8218	-2.3193	-37.3535	-8.9264	-30.2838	89.0387	50.5200 
618.777	-0.2212	-0.1021	-0.0532	-6.5308	24.5972	-49.1943	-9.4098	-30.2234	89.0826	50.2800 
618.777	-0.0708	-0.0142	0.2451	-9.7656	55.8472	-50.9033	-9.4043	-29.6851	88.7091	50.1800 
618.777	0.2070	0.1479	0.5703	-13.2446	82.7637	-55.4810	-9.0088	-28.9545	87.7972	50.0800 
618.777	0.5308	0.3501	1.0698	-17.0898	114.0137	-45.0439	-8.6572	-27.9877	86.9019	50.3700 
618.793	0.8032	0.4536	1.7437	-9.1553	135.8032	-26.9165	-8.3716	-26.7407	86.2097	50.5200 
618.793	1.1826	0.3218	2.6284	-0.1831	171.9971	-27.1606	-8.0530	-25.2026	85.5780	50.1800 
618.793	1.1143	0.3735	3.5181	13.0005	129.1504	-6.0425	-7.7069	-23.6810	85.0616	50.3700 
618.808	0.5103	0.0615	3.0835	24.1699	-14.1602	67.5049	-7.6245	-23.3624	85.5505	50.1800 
618.808	0.2485	-0.4199	2.2583	18.7378	-59.0210	40.7104	-7.6630	-23.7195	86.1438	50.3700 
618.824	0.2788	-0.4741	1.6074	6.9580	-63.1714	0.4883	-7.6959	-24.2413	86.3745	50.5200 
618.840	0.6133	-0.3984	1.1196	2.5024	-45.8374	-31.6162	-7.6520	-24.7687	86.2262	50.0800 
618.840	1.0244	-0.1104	0.8643	1.8311	-7.9346	-24.7803	-7.5256	-25.0983	85.9186	50.1800 
618.855	1.0400	-0.1143	0.9321	1.6479	4.1504	-4.2114	-7.4707	-25.2246	85.8142	50.3700 
618.855	0.8110	-0.1426	0.9644	1.0376	3.9063	6.6528	-7.4817	-25.2795	85.8527	50.1800 
618.855	0.5068	-0.2241	0.9731	-0.3662	-0.2441	0.2441	-7.5201	-25.2960	85.8856	50.0400 
618.871	0.3262	-0.2422	0.9746	-2.4414	-3.9673	-14.4043	-7.5311	-25.3070	85.7922	50.1800 
618.871	0.3491	-0.2158	0.9556	-4.3945	-5.7373	-26.3062	-7.4927	-25.3564	85.5615	50.2300 
618.887	0.4487	-0.1655	0.9614	-6.4697	-4.8828	-33.8135	-7.4213	-25.4388	85.2155	50.2800 
618.949	0.5352	-0.0830	0.9858	-7.6294	-7.3242	-31.1279	-7.3389	-25.5542	84.8474	50.2300 
618.949	0.5234	-0.0088	0.9580	-8.2397	-9.6436	-22.3389	-7.2729	-25.6970	84.5563	50.2300 
618.965	0.4072	0.0649	0.9175	-8.3618	-11.1694	-10.0098	-7.2345	-25.8234	84.3640	50.3700 
618.996	0.2900	0.0918	0.8730	-8.6670	-12.9395	0.3052	-7.2345	-25.9222	84.2706	50.2300 
618.996	0.2129	0.0884	0.8369	-8.4229	-14.8926	6.8359	-7.2620	-26.0046	84.2487	50.5200 
618.996	0.1875	0.0674	0.8096	-8.6060	-15.3809	8.3008	-7.3059	-26.0815	84.2542	50.2300 
618.996	0.2261	0.0327	0.8003	-8.6670	-14.8926	6.7749	-7.3663	-26.1584	84.2706	50.3700 
618.996	0.2891	0.0059	0.8115	-9.6436	-14.7705	5.2490	-7.4432	-26.2573	84.2816	50.1800 
619.028	0.3467	-0.0269	0.8379	-9.9487	-19.1650	6.8359	-7.5421	-26.4001	84.3256	50.0400 
619.028	0.3765	-0.0322	0.7979	-10.6812	-23.9868	11.0474	-7.6794	-26.6034	84.4189	50.3700 
619.028	0.3623	-0.0454	0.7246	-10.4980	-26.1230	17.9443	-7.8552	-26.8396	84.6002	50.1800 
619.028	0.3027	-0.0439	0.6318	-9.8267	-25.7568	25.5127	-8.0695	-27.0593	84.8639	50.2300 
619.028	0.2222	-0.0376	0.5449	-8.9111	-25.6348	32.5928	-8.3112	-27.2406	85.2045	50.2800 
619.043	0.1416	-0.0244	0.4233	-7.2021	-26.4282	37.8418	-8.5638	-27.4054	85.6000	50.2300 
619.043	0.0923	0.0024	0.2524	-4.9438	-26.2451	41.4429	-8.7946	-27.5592	86.0284	50.0400 
619.043	0.0571	0.0400	0.0908	-2.2583	-23.6816	45.3491	-8.9209	-27.7460	86.4240	50.1800 
619.074	0.0073	0.1699	-0.0571	1.3428	-15.1978	49.6216	-8.6298	-28.0316	86.7535	50.2300 
619.074	-0.1104	0.2144	-0.0366	1.5869	-7.5684	64.6973	-8.2782	-28.0756	87.0612	50.4200 
619.105	-0.0811	0.0298	-0.0977	2.6245	4.1504	54.1992	-7.8223	-27.9657	87.2589	50.2800 
619.105	0.0537	0.0059	0.0586	4.2725	37.5366	30.4565	-8.2947	-27.7295	87.7148	50.3700 
619.105	0.2017	0.0059	0.4526	3.9063	60.6689	13.5498	-8.2397	-27.1417	87.7313	50.1800 
619.152	0.3730	-0.0210	0.8394	5.4932	71.7773	2.2583	-8.1189	-26.4386	87.6050	50.2800 
619.152	0.5679	-0.0635	1.2964	8.4229	82.9468	-10.4980	-7.9211	-25.6421	87.3358	50.3700 
619.152	0.8208	-0.1416	1.8745	13.7329	90.8813	-26.9165	-7.6135	-24.7852	86.9019	50.2800 
619.152	0.9082	-0.1792	2.3657	9.1553	82.3975	-6.4697	-7.3608	-23.9282	86.5723	50.2300 
619.183	0.5552	0.0200	2.1909	6.7749	27.4048	32.0435	-7.3279	-23.4283	86.6931	50.2800 
619.183	0.3027	-0.0474	1.6118	3.1128	2.0752	39.6118	-7.3993	-23.2690	87.0392	50.2800 
619.183	0.3652	-0.1318	1.4121	-1.0986	15.8691	15.7471	-7.4707	-23.0658	87.2040	50.0800 
619.215	0.5786	-0.0801	1.5610	-0.8545	21.5454	-2.1973	-7.4542	-22.8241	87.1326	50.0800 
619.215	0.8130	0.0010	1.6138	3.1128	13.3667	-6.4087	-7.3608	-22.6978	86.9788	50.2300 
619.215	0.8779	0.1475	1.5137	6.5308	8.4229	5.0659	-7.2400	-22.6483	86.9073	50.2800 
619.215	0.7686	0.2158	1.4453	7.3242	4.6997	17.9443	-7.1411	-22.6208	86.9678	50.5200 
619.230	0.6387	0.2388	1.4077	6.4087	4.0283	25.2686	-7.0807	-22.5769	87.1106	50.1800 
619.246	0.5591	0.2124	1.4219	6.9580	-3.9063	28.5645	-7.0313	-22.5659	87.2974	50.2800 
619.246	0.5195	0.1748	1.3521	9.4604	-18.0664	30.3955	-6.9873	-22.6813	87.5281	50.2800 
619.262	0.4956	0.1333	1.2173	11.3525	-27.0386	30.5176	-6.9324	-22.9010	87.7863	50.2300 
619.277	0.4834	0.0840	1.0874	12.0850	-28.8696	27.1606	-6.8774	-23.1592	88.0280	50.3700 
619.277	0.4980	0.0610	1.0024	12.2070	-29.6021	23.1934	-6.8115	-23.4448	88.2422	50.2300 
619.277	0.5000	0.0234	0.9272	11.7798	-31.0669	21.3623	-6.7566	-23.7524	88.4344	50.1800 
619.309	0.4580	-0.0215	0.8623	11.6577	-33.5693	19.4702	-6.7072	-24.0875	88.6322	50.3700 
619.309	0.3931	-0.0815	0.7793	10.0708	-35.2173	14.2212	-6.6797	-24.4281	88.7970	50.3700 
619.309	0.3159	-0.1343	0.6831	8.3618	-35.4614	6.4697	-6.6687	-24.7742	88.9069	50.3700 
619.355	0.2534	-0.1836	0.5889	5.6763	-35.7666	-2.3804	-6.6797	-25.1147	88.9563	50.2800 
619.355	0.2041	-0.1943	0.4985	3.0518	-37.2314	-11.2915	-6.7017	-25.4663	88.9343	50.0800 
619.387	0.1812	-0.1963	0.3960	1.0376	-40.2832	-18.7378	-6.7401	-25.8618	88.8629	50.2300 
619.387	0.1484	-0.1572	0.2695	-0.4883	-44.2505	-22.9492	-6.7896	-26.3232	88.7476	50.0400 
619.387	0.0957	-0.1353	0.1221	-1.8311	-47.1802	-23.8647	-6.9159	-26.8561	88.6761	50.2300 
619.387	0.0200	-0.1191	-0.0337	-3.6621	-46.6309	-25.2075	-7.3004	-27.4878	88.7366	50.0800 
619.387	-0.0503	-0.1001	-0.1851	-5.1880	-40.0391	-26.1230	-7.9376	-28.0975	88.8300	50.2800 
619.402	-0.1201	-0.1230	-0.2583	-5.5542	-26.8555	-23.9258	-8.6243	-28.5535	88.9618	50.4200 
619.433	-0.2446	-0.2070	-0.1504	-7.7515	-15.3809	-24.5361	-9.3054	-28.8391	89.2365	50.4200 
619.433	-0.2676	-0.2852	-0.0933	-8.6060	-4.1504	-40.4663	-9.8767	-29.0204	89.4012	50.0800 
619.465	-0.1641	-0.2559	0.0913	-9.7656	23.6816	-51.9409	-10.2557	-28.9270	89.3683	50.2800 
619.465	0.0054	-0.1831	0.4536	-12.6343	46.6919	-64.2700	-10.2008	-28.4656	88.8135	50.2300 
619.465	0.2661	-0.0513	0.8569	-15.5029	65.3076	-73.8525	-9.8767	-27.9163	87.8302	50.1800 
619.465	0.5601	0.0918	1.3828	-14.8315	89.8438	-70.3125	-9.5087	-27.1857	86.7755	50.3700 
619.465	0.8315	0.2734	1.9624	-4.8828	105.2856	-57.1289	-9.0857	-26.2683	85.8087	50.2300 
619.480	1.1104	0.1597	2.5190	1.2817	101.1353	-48.2788	-8.6847	-25.3235	84.9902	50.1800 
619.480	0.9243	0.3286	2.4995	8.7280	41.9922	-16.9678	-8.3606	-24.7467	84.4958	50.0800 
619.512	0.6768	0.0303	2.0396	8.6670	-4.3945	13.3667	-8.2288	-24.6808	84.5013	50.2800 
619.512	0.5933	-0.3145	1.9771	-0.5493	-8.9111	2.3804	-8.2288	-24.7028	84.5618	50.2300 
619.512	0.6333	-0.3999	2.0225	-11.4136	-29.0527	-22.8882	-8.2782	-24.9060	84.4080	50.2300 
619.527	0.7847	-0.3232	1.7290	-15.8691	-51.7578	-35.7666	-8.3221	-25.4004	84.1223	49.9900 
619.527	0.9888	-0.2256	1.3154	-16.6016	-40.7715	-36.7432	-8.3551	-25.9497	83.7927	50.2300 
619.527	1.0654	-0.1211	1.1807	-16.3574	-15.0146	-27.7710	-8.3771	-26.2903	83.4741	50.2300 
619.558	0.9443	-0.0903	1.2021	-13.9771	-11.3525	-16.9067	-8.4155	-26.5045	83.2654	50.1800 
619.605	0.7158	-0.0605	1.1841	-10.1318	-18.9819	-12.2681	-8.4485	-26.7297	83.1171	50.3700 
619.605	0.4761	-0.0684	1.0908	-6.7139	-30.5786	-11.7798	-8.4540	-27.0154	83.0017	50.0400 
619.605	0.3276	-0.1045	0.9536	-4.8218	-36.0718	-19.5313	-8.4265	-27.3450	82.8424	50.1800 
619.621	0.2734	-0.1113	0.8247	-3.2349	-29.3579	-29.7852	-8.3386	-27.6416	82.5732	50.2300 
619.621	0.2891	-0.0449	0.7705	-1.6479	-18.7378	-34.5459	-8.1683	-27.8503	82.1997	50.0400 
619.621	0.3569	0.0391	0.7734	-0.0610	-12.3291	-30.3955	-7.9596	-28.0096	81.8152	50.2300 
619.637	0.4131	0.1250	0.7891	0.3662	-10.8643	-20.4468	-7.7509	-28.1525	81.4911	50.3700 
619.637	0.4497	0.1699	0.8159	-0.3052	-14.1602	-7.8125	-7.5861	-28.3063	81.2988	50.1800 
619.652	0.4595	0.1689	0.8198	-2.0752	-22.2168	3.1738	-7.5092	-28.5205	81.2439	50.4200 
619.652	0.4468	0.1655	0.8188	-2.8687	-32.6538	11.9019	-7.4982	-28.8171	81.3043	50.2300 
619.652	0.4053	0.1426	0.7808	-3.6621	-45.8984	21.7896	-7.5586	-29.2181	81.4911	50.1800 
619.699	0.3115	0.1270	0.6753	-2.6855	-58.9600	33.3862	-7.6904	-29.7180	81.8207	50.2800 
619.699	0.1948	0.0767	0.5103	-1.7090	-67.5049	46.5088	-7.8937	-30.2783	82.3096	50.2800 
619.699	0.0664	0.0391	0.3154	1.6479	-68.9697	58.2275	-8.1519	-30.8057	82.9303	50.2800 
619.730	-0.0381	-0.0059	0.1084	4.9438	-63.5986	64.9414	-8.4265	-31.1462	83.5895	50.2800 
619.730	-0.1216	-0.0400	-0.1162	9.3994	-51.2695	69.5801	-9.5471	-31.6626	85.0891	49.8900 
619.730	-0.1680	-0.0713	-0.3164	13.4888	-32.7148	70.5566	-10.6842	-32.0197	86.4240	50.3700 
619.730	-0.1880	-0.0776	-0.4829	17.8223	-6.2866	66.0400	-11.7389	-32.1295	87.6270	50.3700 
619.762	-0.2026	0.0298	-0.5205	22.3389	25.5737	57.9834	-12.6727	-31.9153	88.6487	50.0400 
619.762	-0.2988	0.1865	-0.3257	19.2871	45.9595	64.2090	-11.9751	-31.3550	88.8135	50.3700 
619.793	-0.2148	-0.0444	-0.2529	15.3809	61.0962	42.5415	-12.0410	-30.7233	89.2474	50.0800 
619.793	-0.0044	0.0273	0.0737	13.4277	101.6235	6.4087	-12.1179	-29.7784	89.2419	50.2300 
619.824	0.2275	0.0957	0.6016	8.6670	115.0513	-17.0898	-11.6675	-28.6633	88.6652	50.3700 
619.824	0.5210	0.0869	1.0723	5.9814	114.1357	-25.0244	-11.2500	-27.5867	88.0115	50.0800 
619.824	0.9424	-0.0889	1.7642	6.2866	123.7793	-38.0859	-10.8490	-26.4771	87.3083	50.2300 
619.840	1.2681	0.1704	2.7500	23.1934	136.2915	-57.7393	-10.2173	-25.3125	86.3306	50.2300 
619.840	0.9502	0.0664	3.4971	9.3994	134.3994	-7.8125	-9.7888	-23.9172	85.7208	50.3700 
619.840	0.3979	-0.1343	2.9229	16.6016	7.8125	50.3540	-9.7284	-23.3624	86.0010	50.2300 
619.855	0.2725	-0.0508	1.8008	15.4419	-31.8604	23.2544	-9.6625	-23.5162	86.2701	50.1800 
619.855	0.3887	-0.1187	1.3794	11.2915	-11.8408	-3.7842	-9.5251	-23.6206	86.2646	50.2800 
619.855	0.6460	-0.0552	1.4590	5.7373	-5.0049	-21.3013	-9.3439	-23.6920	86.0229	50.2800 
619.887	1.0386	0.0098	1.6143	-1.0376	-7.6294	-26.7334	-9.1791	-23.8513	85.6934	50.2800 
619.887	1.2959	0.0557	1.7070	-1.2817	4.9438	-23.8037	-9.0363	-23.9612	85.3583	50.2800 
619.902	1.2729	0.1689	1.7778	-0.0610	4.6387	-7.0801	-8.9099	-23.9996	85.1495	50.2800 
619.949	1.0981	0.1860	1.7188	0.7324	-4.8828	11.0474	-8.8605	-24.0820	85.1550	50.0800 
620.043	0.9204	0.1621	1.5962	-0.4272	-17.3340	19.5923	-8.8660	-24.2358	85.2814	50.5200 
620.043	0.8174	0.1504	1.4390	-0.7935	-32.4097	27.8320	-8.9264	-24.5215	85.5176	50.0800 
620.043	0.7329	0.1260	1.2588	0.6104	-44.4946	34.1797	-9.0253	-24.9280	85.8582	50.2300 
620.043	0.6719	0.1035	1.0586	2.5024	-52.7344	35.8887	-9.1296	-25.4224	86.2537	50.2800 
620.043	0.6294	0.1055	0.8862	3.9063	-58.0444	33.7524	-9.2230	-25.9937	86.6382	50.1800 
620.043	0.5742	0.1055	0.7310	4.7607	-60.9131	31.1890	-9.2944	-26.6144	87.0062	50.4200 
620.043	0.5132	0.0952	0.5962	5.0049	-60.3027	29.6021	-9.3549	-27.2571	87.3523	50.0800 
620.043	0.4341	0.0513	0.4976	4.5776	-56.2744	28.3813	-9.4263	-27.8613	87.6929	50.3700 
620.043	0.3701	-0.0249	0.4009	5.0049	-49.6216	23.8647	-9.5197	-28.4161	88.0115	50.1800 
620.043	0.3237	-0.0874	0.2969	4.9438	-39.6118	14.9536	-9.6295	-28.8995	88.2751	50.3700 
620.043	0.3174	-0.1196	0.2432	3.7842	-29.0527	4.4556	-9.7229	-29.3225	88.4344	50.4200 
620.043	0.3452	-0.1201	0.2397	3.0518	-19.9585	-6.7139	-9.7723	-29.6796	88.4619	50.1800 
620.043	0.3755	-0.0913	0.2715	2.0142	-15.6250	-14.0381	-9.7449	-29.9982	88.3575	50.4200 
620.058	0.3979	-0.0835	0.2754	0.3052	-14.7705	-19.0430	-9.6844	-30.3168	88.1818	50.3700 
620.074	0.4155	-0.0674	0.2817	-1.3428	-13.6108	-23.6206	-9.5966	-30.6354	87.9346	50.4200 
620.074	0.4272	-0.0620	0.3096	-2.6245	-12.0239	-27.0996	-9.4922	-30.9430	87.6379	50.1800 
620.105	0.4214	-0.0894	0.3418	-4.3945	-12.9395	-29.9072	-9.3988	-31.2341	87.3193	50.3700 
620.105	0.4092	-0.1689	0.4155	-6.9580	-13.6719	-31.9824	-9.3439	-31.4923	87.0062	50.2300 
620.105	0.3882	-0.4224	0.4619	-17.2729	-29.8462	-45.6543	-9.4373	-31.8384	86.7151	50.3700 
620.121	0.2544	0.0518	0.4609	-16.0522	-20.2026	-41.5649	-9.2285	-32.1570	86.1163	50.3700 
620.168	0.3203	0.0908	0.5132	-16.2354	-15.6860	-37.9028	-9.0472	-32.3877	85.5560	50.3700 
620.168	0.4023	0.1035	0.5640	-15.5640	-12.3291	-29.5410	-8.9154	-32.5964	85.1001	50.3700 
620.168	0.3726	0.1685	0.6323	-12.8784	-12.5732	-25.8789	-8.7671	-32.7777	84.6826	50.2300 
620.199	0.3657	0.1284	0.6982	-10.5591	-15.0757	-24.7192	-8.6078	-32.9425	84.2926	50.1800 
620.199	0.3608	0.1953	0.7070	-6.7139	-17.1509	-24.7192	-8.3881	-33.1293	83.8751	50.1800 
620.199	0.3242	0.2153	0.6533	-1.7090	-19.6533	-22.3389	-8.1244	-33.3380	83.4741	50.2300 
620.199	0.2910	0.2246	0.5454	3.3569	-18.6157	-20.0195	-7.8003	-33.5468	83.0841	50.2300 
620.199	0.2388	0.2334	0.4648	9.3994	-11.8408	-8.4229	-7.4377	-33.7115	82.7545	50.3700 
620.199	-0.0210	-0.1621	0.6724	6.4697	-15.0146	-3.9673	-7.3169	-33.6621	82.6996	50.5200 
620.199	0.0684	-0.2095	0.5747	4.5776	-13.4888	-45.5933	-7.1741	-33.7006	82.4249	50.3700 
620.215	0.2900	0.0288	0.8354	-3.1738	18.3716	-39.5508	-6.8390	-33.5577	81.8207	50.1800 
620.277	0.3662	0.0142	1.1904	-13.2446	28.4424	-13.1226	-6.7401	-33.2227	81.4746	50.2800 
620.293	0.5425	-0.1909	1.5840	-18.4937	43.2129	-10.9253	-6.8060	-32.7667	81.2769	50.5200 
620.308	0.6382	-0.3613	2.2407	-18.3716	61.7065	-19.3481	-6.8500	-32.1185	80.9912	50.1800 
620.308	0.6528	-0.4790	2.9478	-19.7754	70.6787	-33.0200	-6.8280	-31.3605	80.5518	50.3700 
620.308	0.5557	-0.2305	3.1895	-11.4136	50.1709	-27.1606	-6.7346	-30.6903	80.0848	50.3700 
620.308	0.5527	-0.0425	2.5181	-4.0894	2.1973	-17.7612	-6.6248	-30.4706	79.7827	50.3700 
620.308	0.7725	-0.1021	1.6475	-6.7139	8.6670	-17.4561	-6.5479	-30.4047	79.5630	50.2300 
620.308	0.8203	-0.0762	1.4600	-10.9863	36.4990	-5.4932	-6.5479	-30.0970	79.3872	50.1800 
620.324	0.7549	-0.1543	1.6167	-15.5029	33.1421	-5.1270	-6.6357	-29.7290	79.2773	50.2300 
620.324	0.6509	-0.1899	1.7227	-17.2729	13.3667	-13.7939	-6.7291	-29.5093	79.1180	50.3700 
620.340	0.5898	-0.1738	1.6558	-15.9912	-7.5684	-30.4565	-6.7401	-29.5038	78.8104	50.2300 
620.340	0.6440	-0.0894	1.4468	-13.7329	-17.5781	-37.3535	-6.6742	-29.6631	78.3984	50.0400 
620.371	0.7061	-0.0088	1.1846	-11.4136	-14.4043	-31.2500	-6.5753	-29.8553	78.0084	50.3700 
620.371	0.6875	-0.0024	0.9878	-8.8501	-3.8452	-24.0479	-6.4929	-29.9762	77.7008	50.4200 
620.402	0.6069	-0.0264	0.8550	-7.5684	8.0566	-22.2778	-6.4105	-29.9817	77.4207	50.3700 
620.402	0.4883	-0.0176	0.7925	-5.3101	16.4795	-24.2920	-6.2952	-29.8773	77.1130	50.1800 
620.402	0.3823	0.0410	0.7461	-4.2725	18.7378	-27.0386	-6.1304	-29.7180	76.7505	50.2300 
620.402	0.3350	0.0918	0.6846	-4.7607	16.7236	-28.8086	-5.9216	-29.5587	76.3385	50.3700 
620.402	0.3291	0.1299	0.6123	-4.6997	16.4795	-28.3813	-5.6964	-29.4214	75.9100	50.2300 
620.418	0.3203	0.1484	0.5571	-4.8218	13.3667	-22.1558	-5.4822	-29.3115	75.5255	50.5600 
620.434	0.2983	0.1646	0.5142	-4.8828	10.9253	-13.7329	-5.3009	-29.2291	75.2289	50.1800 
620.449	0.2422	0.2236	0.4648	-4.1504	9.8877	-5.0659	-5.1196	-29.1522	75.0037	50.2800 
620.449	0.2207	0.1689	0.3848	-3.7231	8.7891	2.1973	-4.9933	-29.0808	74.8773	50.5200 
620.465	0.1997	0.1787	0.3149	-2.8076	12.0850	10.0708	-4.8669	-28.9929	74.8224	50.2800 
620.527	0.1890	0.1616	0.2827	-1.8311	17.4561	16.7847	-4.7681	-28.8611	74.8444	50.2300 
620.574	0.1719	0.1563	0.2705	1.0376	24.7803	23.0103	-4.6747	-28.6523	74.9268	50.2300 
620.574	0.1597	0.1743	0.3193	4.8828	33.0811	26.6724	-4.5593	-28.3447	75.0421	50.2300 
620.574	0.1606	0.1792	0.3857	9.6436	38.2690	29.9683	-4.4220	-27.9437	75.1904	50.3700 
620.574	0.1782	0.1680	0.4541	14.0381	40.4663	32.1655	-4.2792	-27.5043	75.3717	50.2300 
620.574	0.2188	0.1587	0.5225	18.0664	38.6353	35.7666	-4.1364	-27.0703	75.6134	50.2300 
620.574	0.2622	0.1533	0.5786	21.3013	34.3628	40.9546	-3.9990	-26.6858	75.9210	50.0800 
620.574	0.3101	0.1177	0.6270	23.1323	27.7710	46.4478	-3.8947	-26.3617	76.3165	50.3700 
620.637	0.3433	0.0835	0.6587	23.3154	20.8130	51.0254	-3.8232	-26.1145	76.7889	50.3700 
620.652	0.3667	0.0405	0.6973	22.4609	14.3433	54.5654	-3.8068	-25.9332	77.3218	50.3700 
620.652	0.4014	-0.0288	0.7349	20.9961	8.8501	55.2368	-3.8397	-25.8124	77.8986	50.0400 
620.652	0.4443	-0.1030	0.7803	19.1040	5.1270	53.9551	-3.9221	-25.7355	78.4973	50.3700 
620.652	0.4946	-0.1675	0.8457	16.9678	1.6479	50.8423	-4.0320	-25.7025	79.0851	50.6100 
620.668	0.5542	-0.2046	0.9282	15.0146	-2.5024	47.2412	-4.1528	-25.7080	79.6344	50.3700 
620.668	0.6118	-0.2798	0.9888	12.8174	-6.1035	43.6401	-4.3011	-25.7629	80.1672	50.3700 
620.668	0.6567	-0.3398	1.0308	11.3525	-7.3853	38.8794	-4.4550	-25.8398	80.6561	50.1800 
620.668	0.6880	-0.4087	1.0762	9.0942	-5.6763	34.7290	-4.6252	-25.9113	81.1066	50.2800 
620.668	0.7197	-0.5083	1.1226	6.3477	-1.3428	29.1138	-4.8065	-25.9442	81.5186	50.3700 
620.668	0.7725	-0.5645	1.1938	3.2349	2.6855	20.5078	-4.9933	-25.9442	81.8427	50.2300 
620.668	0.8223	-0.5352	1.2759	0.9155	-0.2441	9.6436	-5.1416	-25.9662	82.0404	50.2300 
620.668	0.8599	-0.3857	1.3262	-0.4272	-12.8174	2.3804	-5.2350	-26.0925	82.1338	50.3700 
620.730	0.8496	-0.1069	1.3774	-2.6855	-27.7100	2.9907	-5.2899	-26.3617	82.1667	50.3700 
620.730	0.8125	0.0659	1.4746	-4.5776	-44.7388	9.3994	-5.3558	-26.7792	82.2382	50.3700 
620.730	0.7476	0.1274	1.5117	-4.6997	-57.7393	12.0850	-5.4327	-27.3175	82.3480	50.0400 
620.730	0.6201	0.1870	1.3301	-0.3052	-59.0210	12.5122	-5.4657	-27.8943	82.4579	50.2300 
620.824	0.4106	0.2466	1.0684	4.4556	-40.1611	24.7803	-5.4492	-28.3118	82.6117	50.2300 
620.824	0.1333	0.1504	0.9106	5.1270	-8.7280	34.4849	-5.4602	-28.3667	82.8424	50.2300 
620.824	-0.1392	0.0518	0.8813	2.6245	22.5830	31.1279	-5.4767	-28.0096	83.0072	50.0800 
620.824	-0.3228	-0.0171	0.9634	-0.4883	46.2646	11.0474	-5.4218	-27.3450	82.9248	50.0800 
620.824	-0.2944	0.0068	1.1411	-4.0894	58.5938	-16.4185	-5.2679	-26.5649	82.5403	50.3700 
620.855	-0.0645	0.0918	1.3857	-6.5308	56.9458	-39.0625	-5.0427	-25.8398	81.9305	50.2300 
620.855	0.2197	0.2476	1.5483	-6.7139	44.0063	-42.3584	-4.7791	-25.2960	81.2659	50.3700 
620.855	0.4385	0.4014	1.6016	-3.6011	24.8413	-30.4565	-4.5374	-24.9829	80.7166	50.3700 
620.855	0.5605	0.5239	1.6094	1.7700	6.6528	-9.7046	-4.3176	-24.8676	80.3870	50.3700 
620.855	0.5933	0.5171	1.5815	7.8735	-10.2539	15.1978	-4.1528	-24.9170	80.3430	50.2800 
620.855	0.5459	0.3887	1.4790	14.2212	-24.5972	38.6963	-4.0649	-25.0983	80.5902	50.0400 
620.855	0.4546	0.2183	1.3062	17.5781	-28.3203	52.9175	-4.0430	-25.3235	81.0461	50.2300 
620.855	0.3765	0.0786	1.1851	18.1885	-23.9258	57.0679	-4.0704	-25.4938	81.5900	50.2300 
620.855	0.3384	-0.0332	1.0986	16.3574	-20.2637	55.7861	-4.1528	-25.6146	82.1613	50.2800 
620.855	0.3379	-0.1357	1.0156	12.9395	-18.3105	50.1099	-4.2847	-25.7190	82.7161	50.1800 
620.871	0.3413	-0.2202	0.9253	8.9111	-17.5781	45.3491	-4.4604	-25.8179	83.2489	50.2300 
620.887	0.3296	-0.2148	0.8364	5.3101	-16.1743	38.1470	-4.6692	-25.9277	83.7213	50.2800 
620.887	0.3120	-0.2036	0.7778	2.8687	-15.4419	33.1421	-4.8779	-26.0211	84.1388	50.3700 
620.902	0.2983	-0.2075	0.7104	1.8311	-15.1367	28.4424	-5.0757	-26.1255	84.5068	50.1800 
620.934	0.2778	-0.1479	0.6519	2.1362	-12.5732	24.2310	-5.2295	-26.2079	84.7925	50.0800 
620.934	0.2798	-0.1436	0.6045	3.0518	-10.8032	17.4561	-5.3503	-26.2903	85.0177	50.1800 
620.949	0.2778	-0.1104	0.5493	3.4180	-8.9722	9.0942	-5.4382	-26.3727	85.1660	50.2300 
620.980	0.2939	-0.1157	0.5190	3.8452	-5.2490	5.3101	-5.4602	-26.4386	85.2264	50.1800 
620.980	0.2822	-0.0259	0.4810	5.3101	-1.6479	-2.5635	-5.4218	-26.4880	85.1825	50.3700 
620.980	0.3101	-0.1133	0.4839	5.5542	2.2583	-6.0425	-5.3613	-26.5045	85.1001	50.1800 
620.980	0.2930	-0.0239	0.4717	6.7749	8.4229	-13.7329	-5.2405	-26.4880	84.9188	50.2800 
621.012	0.3203	-0.1685	0.4976	6.2866	11.4746	-23.6816	-5.1361	-26.4276	84.7101	50.3700 
621.012	0.3247	-0.0859	0.5400	6.3477	17.6392	-25.8179	-4.9438	-26.3123	84.3750	50.0400 
621.012	0.3242	-0.0581	0.5713	6.4697	19.5313	-37.8418	-4.7406	-26.1859	83.9630	50.2300 
621.012	0.3608	-0.1646	0.6372	5.3101	18.9209	-38.4521	-4.5209	-26.0321	83.5236	50.2300 
621.043	0.3223	0.0112	0.6626	5.2490	17.3950	-42.9688	-4.2517	-25.9003	82.9852	50.2300 
621.043	0.3267	-0.0044	0.6865	4.3335	14.0991	-43.1519	-3.9716	-25.7794	82.4414	50.2800 
621.043	0.3301	0.0029	0.6914	2.3804	12.8174	-40.6494	-3.7134	-25.6805	81.9196	50.2800 
621.075	0.3545	-0.1343	0.6802	-0.1831	10.6201	-44.9219	-3.5156	-25.5981	81.4252	50.2300 
621.075	0.2930	0.1724	0.7124	-1.8311	15.9912	-41.8701	-3.2190	-25.4718	80.8044	50.2800 
621.075	0.3423	0.1587	0.7388	-4.0283	13.0005	-40.4663	-2.9663	-25.3564	80.2386	50.1800 
621.090	0.4121	0.1543	0.7495	-5.4321	14.4653	-38.8184	-2.7466	-25.2576	79.7168	50.0400 
621.090	0.5103	0.1528	0.8105	-6.7139	15.5029	-40.1611	-2.5433	-25.1642	79.1895	50.2300 
621.105	0.6294	-0.0020	0.9175	-7.5073	5.9814	-55.1147	-2.4005	-25.1587	78.6346	50.0800 
621.121	0.6836	0.1616	1.0732	-7.7515	-2.5635	-48.6450	-2.1863	-25.2191	78.0304	50.2300 
621.121	0.6987	0.2563	1.1665	-5.7373	-17.5781	-37.6587	-1.9666	-25.4169	77.4976	50.1800 
621.184	0.7065	0.1729	1.1538	-3.6621	-28.6865	-28.3203	-1.8073	-25.7300	77.1075	50.3700 
621.184	0.6387	0.2451	1.1138	-0.8545	-27.4658	-16.8457	-1.6534	-26.0431	76.8219	50.2800 
621.184	0.5986	0.2266	1.0903	0.9155	-24.5361	-6.8970	-1.5271	-26.3232	76.6516	50.1800 
621.215	0.5864	0.2158	1.0459	2.7466	-19.1040	-1.9531	-1.4172	-26.5485	76.5582	50.2300 
621.215	0.5933	0.2544	1.0269	3.7231	-14.1602	-2.4414	-1.2909	-26.7242	76.4539	50.2300 
621.215	0.6528	0.3232	1.0273	4.5776	-13.1226	-2.0752	-1.1316	-26.8890	76.3440	50.2800 
621.215	0.7246	0.3687	1.0293	4.9438	-14.9536	1.4038	-0.9778	-27.0868	76.2561	50.1800 
621.215	0.7881	0.3696	1.0142	5.3711	-21.1792	7.0190	-0.8459	-27.3450	76.2341	50.2300 
621.215	0.8037	0.3140	1.0303	6.6528	-30.5176	15.3809	-0.7526	-27.6910	76.3055	50.2800 
621.230	0.6948	0.1611	1.0796	6.8359	-41.4429	24.5972	-0.7471	-28.1140	76.5033	50.0800 
621.246	0.4927	-0.0586	1.1650	6.3477	-52.4292	28.9917	-0.8295	-28.5919	76.8109	50.2300 
621.246	0.3110	-0.2544	1.1919	5.7373	-60.8521	22.0337	-0.9723	-29.1083	77.1240	49.9900 
621.246	0.1514	-0.3423	1.0977	2.6245	-60.4858	20.0806	-1.1646	-29.6027	77.4426	50.2800 
621.293	0.0015	-0.3828	0.9224	-1.8311	-49.8657	20.3857	-1.4502	-29.9817	77.8217	50.2800 
621.293	-0.0840	-0.3853	0.7617	-7.3242	-29.4189	12.8784	-1.8073	-30.1575	78.2062	50.2800 
621.293	-0.0596	-0.3047	0.6865	-9.7046	3.2959	0.4883	-2.1259	-30.0366	78.4424	50.1800 
621.293	0.0352	-0.2339	0.8247	-12.2681	35.7056	-10.9863	-2.3126	-29.5917	78.4369	50.1800 
621.324	0.1641	-0.1572	1.0845	-11.7188	53.0396	-21.6064	-2.3621	-28.9709	78.2117	50.4200 
621.324	0.2964	-0.0718	1.3267	-8.3008	53.4668	-28.6255	-2.3016	-28.3392	77.8546	50.0400 
621.340	0.3975	-0.0083	1.4619	-5.2490	40.2222	-28.9307	-2.1863	-27.8339	77.4646	50.0800 
621.340	0.4326	0.0107	1.4673	-3.1738	23.3154	-25.4517	-2.0544	-27.4988	77.1185	50.2800 
621.340	0.4165	-0.0059	1.4199	-3.4790	7.9346	-22.9492	-1.9501	-27.3285	76.8109	50.3700 
621.355	0.3872	-0.0366	1.3643	-5.4321	-4.0894	-24.7803	-1.8677	-27.2845	76.5143	50.1800 
621.355	0.3950	-0.0313	1.2925	-7.8125	-11.9019	-28.6255	-1.7908	-27.3285	76.1847	50.1800 
621.355	0.4175	-0.0142	1.1943	-10.3760	-15.0146	-29.4189	-1.7358	-27.4329	75.8386	50.0400 
621.387	0.4287	0.0049	1.0938	-11.8408	-13.2446	-27.2217	-1.6919	-27.5427	75.5090	50.2300 
621.387	0.4209	0.0356	1.0181	-12.2070	-7.6904	-23.4375	-1.6644	-27.6086	75.2069	50.0800 
621.387	0.3789	0.0498	0.9741	-11.0474	-3.7842	-18.4937	-1.6479	-27.6251	74.9542	50.0800 
621.434	0.3369	0.0591	0.9331	-8.6060	-1.4648	-16.1743	-1.6205	-27.6086	74.7290	50.0800 
621.449	0.2998	0.0669	0.8804	-6.1035	-0.7324	-16.6016	-1.5656	-27.5702	74.5093	50.0800 
621.449	0.2793	0.0869	0.8369	-4.0283	-0.4883	-15.8691	-1.4777	-27.5262	74.2786	50.0400 
621.465	0.2734	0.1025	0.7778	-2.9297	-1.4038	-13.6108	-1.3733	-27.4933	74.0533	50.2300 
621.465	0.2573	0.1113	0.7207	-2.2583	-1.7090	-10.8032	-1.2744	-27.4713	73.8611	50.2800 
621.465	0.2588	0.0894	0.6689	-2.1362	-1.7700	-7.8735	-1.1920	-27.4493	73.7073	50.0800 
621.480	0.2549	0.0669	0.6260	-1.4648	0.0000	-5.9814	-1.1261	-27.4274	73.5919	50.0800 
621.480	0.2241	0.0923	0.6021	-0.7324	1.4648	-2.7466	-1.0602	-27.3779	73.4875	50.3700 
621.480	0.2021	0.0605	0.5884	-0.2441	2.9297	1.2817	-1.0162	-27.3065	73.4436	50.1800 
621.512	0.1865	0.0898	0.5830	0.5493	6.4697	5.7373	-0.9723	-27.1967	73.4271	50.1800 
621.512	0.1841	0.0811	0.5923	1.5259	9.7656	9.0942	-0.9503	-27.0538	73.4656	50.0400 
621.512	0.1865	0.1094	0.6050	2.4414	12.9395	14.2822	-0.9174	-26.8781	73.5315	50.0400 
621.543	0.2104	0.1348	0.6367	3.3569	17.0898	19.9585	-0.8899	-26.6693	73.6523	50.0800 
621.543	0.2334	0.0747	0.6787	5.1880	16.7236	24.7803	-0.9009	-26.4496	73.8556	50.1800 
621.543	0.2441	0.0762	0.6958	6.5308	15.9302	26.6724	-0.9229	-26.2463	74.0918	50.0800 
621.590	0.2588	0.0371	0.7202	7.5684	13.7939	29.4189	-0.9558	-26.0596	74.3610	49.9900 
621.621	0.2842	-0.0190	0.7114	7.9956	9.6436	29.4189	-1.0162	-25.9167	74.6686	50.2300 
621.621	0.3252	-0.0840	0.6787	7.3853	7.3242	27.0996	-1.0986	-25.8289	74.9872	50.1800 
621.621	0.3745	-0.1250	0.6670	6.2866	5.7983	23.9258	-1.2030	-25.7849	75.2948	50.2300 
621.621	0.4219	-0.1362	0.6909	4.0894	1.9531	21.8506	-1.3184	-25.7794	75.5695	50.1800 
621.621	0.4658	-0.1411	0.7070	2.3804	-2.3804	20.7520	-1.4502	-25.8289	75.8386	50.3700 
621.637	0.4858	-0.1152	0.7124	1.7090	-6.1646	21.9727	-1.5820	-25.9277	76.1023	50.0800 
621.637	0.4810	-0.0854	0.7183	1.9531	-6.1646	24.7192	-1.7139	-26.0321	76.3879	50.2300 
621.637	0.4653	-0.0811	0.7417	3.1738	-2.5024	28.1372	-1.8457	-26.0980	76.6956	50.3700 
621.652	0.4648	-0.0742	0.7769	5.0659	4.0894	27.2827	-1.9556	-26.0925	77.0032	49.9900 
621.684	0.4868	-0.0688	0.8550	7.2021	11.2915	24.0479	-2.0270	-26.0101	77.2668	50.0400 
621.684	0.5635	-0.1099	0.9229	8.8501	15.0757	19.4092	-2.0654	-25.8948	77.4921	50.0400 
621.684	0.6533	-0.1001	1.0059	8.9722	18.1274	13.7939	-2.0709	-25.7520	77.6514	50.1800 
621.699	0.7466	-0.0889	1.1050	7.9346	15.2588	10.7422	-2.0544	-25.6311	77.7557	50.2300 
621.699	0.8008	-0.0918	1.1792	6.1646	8.2397	10.6812	-2.0490	-25.5762	77.8601	50.2300 
621.715	0.8130	-0.1172	1.2075	4.4556	-1.1597	12.6953	-2.0764	-25.6091	77.9865	50.0800 
621.731	0.7969	-0.1831	1.1860	2.7466	-10.8032	13.8550	-2.1478	-25.7410	78.1458	50.2300 
621.731	0.7793	-0.2388	1.1362	1.6479	-16.1133	13.5498	-2.2467	-25.9332	78.3270	50.0800 
621.746	0.7715	-0.2495	1.1167	0.8545	-20.2026	12.0239	-2.3566	-26.1694	78.4973	49.8900 
621.746	0.7935	-0.2192	1.0894	0.7935	-24.9023	10.1929	-2.4609	-26.4606	78.6511	50.0800 
621.746	0.8086	-0.0679	1.1064	0.4883	-26.8555	7.9956	-2.5159	-26.7792	78.7500	50.2300 
621.793	0.8101	0.0918	1.2510	-1.5259	-30.2734	10.4980	-2.5598	-27.1033	78.8379	50.1800 
621.809	0.8130	0.1865	1.3833	-2.8076	-37.4146	13.8550	-2.6038	-27.4823	78.9368	50.0400 
621.840	0.7773	0.2363	1.3848	0.0610	-42.8467	18.4937	-2.6422	-27.9053	79.0686	50.2300 
621.840	0.6299	0.2397	1.2578	5.1880	-43.5181	33.5083	-2.6917	-28.3337	79.3268	50.0800 
621.840	0.3770	0.1807	1.0420	8.9111	-37.4146	49.0723	-2.7740	-28.6743	79.7607	50.0800 
621.840	0.1094	0.0977	0.8530	9.9487	-20.7520	56.6406	-2.9059	-28.8062	80.2826	50.0800 
621.840	-0.1357	0.0972	0.7656	9.6436	0.1221	53.5278	-2.9938	-28.6414	80.7166	50.0800 
621.856	-0.2578	0.0439	0.7397	7.4463	18.6768	44.0674	-3.0212	-28.2349	80.9747	49.9900 
621.856	-0.2749	0.0571	0.7759	5.1270	32.2876	27.9541	-2.9773	-27.6746	81.0406	50.0800 
621.871	-0.1597	0.1074	0.9043	2.8076	41.4429	12.9395	-2.8839	-27.0648	80.9637	50.0800 
621.871	0.0356	0.1094	1.0645	-0.7324	42.9077	4.2114	-2.8070	-26.4825	80.8429	50.0800 
621.887	0.2300	0.1235	1.2456	-3.4790	39.7339	0.7324	-2.7576	-25.9717	80.7056	50.0400 
621.902	0.3159	0.1772	1.3706	-5.1880	26.2451	8.4229	-2.7466	-25.5981	80.6287	50.0400 
621.934	0.3442	0.1235	1.4136	-5.6152	14.2822	16.7236	-2.8070	-25.3564	80.6726	50.1800 
621.934	0.3237	0.1533	1.3950	-6.3477	4.3335	24.1699	-2.9114	-25.2136	80.8044	50.1800 
621.934	0.3545	0.0190	1.3506	-6.0425	-1.0376	30.6396	-3.0652	-25.1422	81.0406	50.1800 
621.949	0.3721	0.0220	1.2842	-5.9814	-4.0283	30.2734	-3.2410	-25.0983	81.3043	50.0400 
621.949	0.3906	0.0293	1.1802	-6.1035	-7.5073	33.6914	-3.4222	-25.1038	81.5900	50.1800 
621.949	0.4102	-0.1108	1.0898	-6.7139	-6.7139	34.0576	-3.6530	-25.1202	81.9305	49.8900 
621.996	0.3540	0.0215	1.0137	-6.7139	-7.3853	32.4707	-3.8452	-25.1367	82.2162	50.1800 
621.996	0.3315	-0.0615	0.9380	-6.7139	-9.8877	31.3110	-4.0540	-25.1807	82.5183	50.0400 
621.996	0.3149	-0.1763	0.8604	-5.6763	-8.7891	25.6958	-4.2792	-25.2136	82.8149	49.8900 
621.996	0.2803	-0.1543	0.8047	-5.9814	-7.6904	13.7329	-4.4659	-25.2466	83.0017	49.9900 
621.996	0.2725	-0.0732	0.7861	-6.6528	-8.7280	9.9487	-4.5813	-25.2795	83.0676	49.9900 
622.027	0.3096	-0.0977	0.7319	-7.4463	-7.2021	4.4556	-4.6967	-25.3345	83.1061	49.8400 
622.027	0.3423	-0.1016	0.7314	-8.0566	-4.5776	-1.6479	-4.8010	-25.3784	83.0896	50.0400 
622.027	0.3589	-0.0640	0.7437	-8.9111	-5.7373	-3.4790	-4.8724	-25.4333	83.0182	50.0400 
622.059	0.3857	-0.1826	0.7593	-8.8501	-6.8359	-8.4229	-4.9658	-25.5048	82.9413	50.2300 
622.074	0.3589	-0.0850	0.7632	-8.8501	-10.6201	-16.7847	-5.0043	-25.6146	82.7545	50.0800 
622.074	0.3228	0.0493	0.7734	-8.7280	-11.9019	-16.9067	-4.9548	-25.7300	82.4744	50.0400 
622.074	0.3608	-0.0796	0.7295	-7.2021	-12.2681	-18.1274	-4.9493	-25.8728	82.2491	49.8900 
622.090	0.4102	-0.3550	0.7183	-9.8877	-14.2822	-24.4141	-5.0043	-26.0321	82.0459	50.0400 
622.090	0.2847	0.1045	0.6851	-6.6528	-8.1787	-36.2549	-4.8724	-26.1694	81.5845	50.0800 
622.106	0.3823	-0.1934	0.7461	-8.6670	-14.1602	-33.2031	-4.8010	-26.3123	81.1945	49.8400 
622.121	0.3433	0.0537	0.6494	-7.2632	-8.3008	-45.1660	-4.6747	-26.4825	80.6946	49.9900 
622.137	0.4268	-0.2773	0.7041	-9.4604	-11.4136	-44.4946	-4.5923	-26.6199	80.2441	50.0400 
622.137	0.3496	0.1431	0.6997	-9.8267	-6.1035	-41.9312	-4.3945	-26.7462	79.6454	50.2800 
622.168	0.3701	-0.0024	0.6929	-11.4746	-11.8408	-50.3540	-4.2902	-26.9110	79.1180	49.9900 
622.168	0.3574	0.0332	0.7017	-13.7939	-9.7656	-45.5933	-4.1473	-27.0428	78.5632	50.0400 
622.199	0.3516	0.0820	0.6807	-14.4043	-8.4229	-42.4194	-4.0155	-27.1692	78.0139	49.7000 
622.199	0.3545	0.0889	0.6763	-15.3809	-5.6763	-37.5366	-3.9001	-27.2681	77.5085	49.8900 
622.199	0.3594	0.0928	0.6621	-15.1978	-2.9297	-36.8042	-3.8013	-27.3395	77.0306	49.9900 
622.231	0.4038	0.0889	0.6904	-14.5874	-0.1221	-40.6494	-3.6859	-27.3944	76.5308	49.9900 
622.231	0.4697	0.0894	0.7622	-14.1602	0.8545	-43.5791	-3.5486	-27.4384	75.9924	50.2300 
622.231	0.5352	0.0908	0.8438	-13.5498	-3.0518	-44.9829	-3.4058	-27.5153	75.4431	50.1800 
622.231	0.5825	0.0933	0.9043	-12.3291	-9.2773	-43.8843	-3.2520	-27.6526	74.9048	50.0400 
622.246	0.5918	0.1133	0.9341	-10.1318	-13.8550	-39.7339	-3.0927	-27.8339	74.3994	50.0800 
622.246	0.5752	0.1250	0.9453	-8.1177	-16.0522	-32.1045	-2.9443	-28.0371	73.9764	49.9900 
622.246	0.5469	0.1294	0.9297	-5.8594	-12.6343	-24.5972	-2.8070	-28.2019	73.6359	50.0400 
622.278	0.5117	0.1348	0.9229	-4.2725	-7.8125	-18.7378	-2.6807	-28.3118	73.3557	49.8900 
622.293	0.4976	0.1392	0.9063	-2.7466	-2.9297	-13.3667	-2.5653	-28.3667	73.1360	50.1800 
622.293	0.4722	0.1475	0.8857	-1.4648	0.7324	-7.8735	-2.4664	-28.3722	72.9712	50.0400 
622.293	0.4521	0.1616	0.8672	-0.3662	4.9438	-2.8687	-2.3730	-28.3337	72.8613	50.0400 
622.309	0.4507	0.1611	0.8726	0.3662	6.4087	0.0000	-2.2852	-28.2678	72.7844	49.8400 
622.309	0.4873	0.1416	0.8804	1.5259	6.3477	-0.3662	-2.2028	-28.2129	72.7240	50.0400 
622.324	0.5571	0.1230	0.9224	2.1362	3.6011	-2.5024	-2.1094	-28.1854	72.6526	50.2300 
622.340	0.6338	0.0796	0.9609	2.8076	-2.7466	-4.2725	-2.0215	-28.2294	72.5757	49.8900 
622.356	0.7051	0.0098	1.0142	3.7842	-10.6812	-5.7983	-1.9336	-28.3557	72.5098	50.0400 
622.356	0.7510	-0.0967	1.1108	3.9063	-20.3857	-7.4463	-1.8677	-28.5699	72.4438	49.9900 
622.356	0.7915	-0.2217	1.2402	2.1973	-30.2124	-11.2305	-1.8347	-28.8776	72.3724	49.9900 
622.403	0.8125	-0.2935	1.3896	-0.4272	-36.3159	-13.8550	-1.8182	-29.2456	72.2791	50.0400 
622.403	0.7563	-0.3237	1.5396	-5.7373	-35.8887	-11.4136	-1.8622	-29.6027	72.2076	49.8400 
622.403	0.6411	-0.2642	1.6211	-10.3760	-37.0483	-8.1177	-1.9611	-29.9213	72.1582	50.0400 
622.418	0.5059	-0.1084	1.3950	-12.3901	-44.3115	-2.6245	-2.0929	-30.2838	72.1417	49.8900 
622.434	0.4189	-0.0034	1.0332	-11.5967	-36.8652	4.8828	-2.2302	-30.6299	72.1802	50.0400 
622.434	0.3369	0.0376	0.8311	-9.3384	-16.6626	9.5825	-2.3566	-30.7947	72.2626	49.8400 
622.434	0.2437	0.0366	0.7935	-6.2866	-4.1504	10.3760	-2.4500	-30.7837	72.3395	49.8900 
622.450	0.1816	-0.0137	0.7813	-3.2349	0.1831	5.1880	-2.5049	-30.6903	72.3834	49.8900 
622.450	0.1309	-0.0830	0.7607	-2.0752	4.0894	-4.2725	-2.5323	-30.5365	72.3505	50.1800 
622.481	0.1094	-0.1411	0.8325	-2.8076	7.0190	-18.4326	-2.5104	-30.3442	72.2021	50.0400 
622.496	0.1387	-0.1270	0.9531	-6.4087	9.7046	-33.3252	-2.4280	-30.1355	71.8671	49.8400 
622.512	0.1938	-0.1113	1.0737	-10.4980	8.1177	-41.0156	-2.3236	-29.9377	71.4166	49.8900 
622.512	0.2290	-0.0854	1.1147	-11.0474	4.2725	-43.4570	-2.1973	-29.7894	70.9222	50.0400 
622.512	0.2764	-0.0562	1.0928	-8.9111	4.3945	-42.6025	-2.0544	-29.6631	70.4224	49.9900 
622.512	0.3223	0.0010	1.0264	-4.8828	9.2163	-37.5366	-1.8842	-29.5258	69.9609	49.9900 
622.559	0.3433	0.0474	0.9751	-1.2817	17.4561	-30.1514	-1.6919	-29.3170	69.5654	49.8400 
622.559	0.3418	0.0566	0.9648	1.2817	26.1230	-21.6064	-1.5161	-29.0259	69.2633	49.8900 
622.559	0.3008	0.0635	0.9888	3.0518	30.0293	-15.0146	-1.3568	-28.6688	69.0326	50.0800 
622.574	0.2563	0.0913	1.0020	3.2959	28.4424	-10.0098	-1.2140	-28.3008	68.8568	50.0800 
622.574	0.2163	0.1250	0.9917	2.4414	24.3530	-4.7607	-1.0986	-27.9602	68.7250	50.0800 
622.574	0.1958	0.1924	0.9673	0.2441	19.8975	6.1646	-0.9943	-27.6526	68.6426	50.0800 
622.606	0.1816	0.2402	0.8892	-0.7324	18.6768	10.9863	-0.9448	-27.3889	68.6426	49.8900 
622.621	0.1899	0.1753	0.8491	-0.9155	20.2637	17.2119	-0.9448	-27.1088	68.7305	50.1800 
622.653	0.1982	0.1421	0.8496	-0.4883	25.2686	20.0806	-0.9668	-26.7847	68.8678	49.8400 
622.653	0.2354	0.1006	0.8867	1.8311	29.9683	19.6533	-0.9888	-26.4276	69.0216	49.8900 
622.653	0.2656	0.0693	0.9414	3.6011	31.0059	19.3481	-1.0162	-26.0486	69.1919	49.8400 
622.653	0.2949	0.0220	0.9829	5.7373	28.6865	20.3857	-1.0382	-25.6970	69.3842	50.1800 
622.653	0.3008	-0.0181	1.0078	6.6528	24.7803	22.9492	-1.0712	-25.3839	69.6149	50.0400 
622.653	0.3018	-0.0493	0.9902	7.2021	20.8130	25.8789	-1.1261	-25.1093	69.8895	50.0400 
622.684	0.2871	-0.0635	0.9795	6.8970	16.6016	29.9683	-1.2085	-24.8785	70.2081	49.9900 
622.684	0.2783	-0.1099	0.9438	5.6763	13.9771	32.1045	-1.3184	-24.6808	70.5707	49.9900 
622.684	0.2612	-0.1328	0.9219	4.9438	12.7563	30.4565	-1.4557	-24.4940	70.9387	49.9900 
622.716	0.2603	-0.1523	0.9116	2.9907	12.3291	27.2217	-1.5985	-24.3073	71.2793	49.9900 
622.731	0.2720	-0.1738	0.9238	1.6479	11.1694	22.7661	-1.7413	-24.1425	71.5759	49.9900 
622.747	0.2739	-0.1646	0.9302	0.7324	8.4229	18.9209	-1.8732	-23.9996	71.8231	50.2300 
622.747	0.2783	-0.1538	0.9380	-0.0610	4.2114	16.6626	-1.9940	-23.9008	72.0374	49.8400 
622.747	0.2842	-0.1548	0.9297	-0.5493	1.1597	14.5874	-2.1094	-23.8348	72.2296	49.8400 
622.778	0.2993	-0.1553	0.9243	-0.4883	-0.3662	11.1694	-2.2192	-23.7909	72.3889	49.8900 
622.778	0.3423	-0.1509	0.9395	-1.2817	-0.9766	7.7515	-2.3071	-23.7689	72.5098	49.9900 
622.778	0.3833	-0.1382	0.9629	-1.2817	-2.8076	5.7373	-2.3840	-23.7744	72.6031	50.1800 
622.778	0.3916	-0.1113	0.9653	-1.7090	-5.2490	5.7983	-2.4554	-23.8074	72.6801	49.8900 
622.809	0.3789	-0.1040	0.9531	-1.4648	-7.4463	6.4697	-2.5214	-23.8678	72.7570	49.8900 
622.809	0.3667	-0.0957	0.9316	-1.2817	-7.2021	5.9814	-2.5873	-23.9227	72.8394	49.8900 
622.809	0.3613	-0.0894	0.9272	-0.9155	-4.3335	3.9673	-2.6367	-23.9557	72.8943	50.0400 
622.840	0.3687	-0.0889	0.9487	-0.4272	-1.0376	0.2441	-2.6642	-23.9557	72.9163	49.8400 
622.840	0.3862	-0.0767	0.9697	-0.0610	0.7935	-3.1128	-2.6642	-23.9392	72.8888	49.8900 
622.840	0.3960	-0.0679	0.9673	0.8545	0.6714	-5.1880	-2.6477	-23.9227	72.8394	49.8900 
622.840	0.3892	-0.0635	0.9487	1.5259	0.9155	-6.3477	-2.6147	-23.9063	72.7679	50.0400 
622.840	0.3618	-0.0513	0.9307	2.6855	2.3193	-7.5684	-2.5598	-23.8788	72.6855	49.9900 
622.872	0.3486	-0.0522	0.9063	3.2959	4.3945	-9.0942	-2.4939	-23.8239	72.5812	50.0400 
622.872	0.3472	-0.0532	0.9023	3.5400	7.8125	-11.9019	-2.4170	-23.7469	72.4548	49.8900 
622.903	0.3633	-0.0591	0.9312	3.4790	10.1318	-15.1367	-2.3236	-23.6371	72.2900	49.9900 
622.903	0.3804	-0.0552	0.9604	3.5400	10.1929	-18.3105	-2.2192	-23.5327	72.0923	50.0800 
622.903	0.3867	-0.0430	1.0010	3.9063	8.1177	-19.1040	-2.0984	-23.4393	71.8781	49.8400 
622.934	0.3799	-0.0483	0.9922	3.7842	4.5166	-19.6533	-1.9830	-23.3789	71.6638	50.0400 
622.934	0.3765	-0.0474	0.9731	3.8452	2.9297	-20.1416	-1.8622	-23.3405	71.4441	50.0400 
622.966	0.3823	-0.0352	0.9561	3.7842	2.5024	-19.4702	-1.7413	-23.3130	71.2244	49.8900 
622.966	0.3843	-0.0518	0.9546	3.4180	3.2959	-16.5405	-1.6315	-23.2800	71.0376	49.8900 
622.966	0.3813	-0.0283	0.9316	3.1128	3.2959	-13.6108	-1.5326	-23.2416	70.8673	50.0400 
623.012	0.3682	-0.0645	0.9121	2.7466	2.4414	-12.2070	-1.4667	-23.2141	70.7355	50.0800 
623.012	0.3462	-0.0112	0.8911	2.9907	3.2959	-11.1694	-1.3843	-23.1812	70.6036	50.0400 
623.012	0.3311	-0.0127	0.8838	2.3193	4.0283	-7.9956	-1.3184	-23.1262	70.5048	49.8900 
623.043	0.3237	-0.0259	0.8765	1.3428	5.0049	-6.4087	-1.2744	-23.0658	70.4279	50.1800 
623.043	0.3027	-0.0269	0.8755	0.6104	6.5308	-4.4556	-1.2524	-22.9889	70.3729	50.1800 
623.043	0.3076	-0.0430	0.8872	-0.1831	7.0801	-4.0283	-1.2469	-22.8955	70.3345	49.8400 
623.043	0.3271	-0.0376	0.8926	-0.9155	8.9111	-3.4180	-1.2415	-22.7966	70.2960	50.0400 
623.059	0.3169	-0.0313	0.9180	-1.1597	8.9722	-1.0986	-1.2524	-22.6813	70.2740	49.7000 
623.059	0.3101	-0.0308	0.9478	-1.9531	8.7280	-0.4883	-1.2689	-22.5714	70.2686	49.8400 
623.059	0.2930	-0.0449	0.9648	-2.6855	8.7280	0.1221	-1.3019	-22.4506	70.2631	50.0400 
623.074	0.2778	-0.0581	0.9697	-3.7842	9.3384	0.2441	-1.3458	-22.3187	70.2740	49.8400 
623.074	0.2822	-0.0801	0.9751	-3.4790	9.6436	-1.3428	-1.4008	-22.1869	70.2686	49.9900 
623.106	0.3062	-0.0830	0.9668	-1.5869	9.6436	-3.1128	-1.4337	-22.0660	70.2521	49.8400 
623.106	0.3442	-0.0684	0.9487	-0.3052	11.3525	-4.0283	-1.4392	-21.9397	70.2246	49.9900 
623.138	0.3687	-0.0557	0.9697	0.9155	12.6343	-4.1504	-1.4282	-21.8079	70.1862	49.9900 
623.138	0.3745	-0.0386	0.9937	1.5259	12.2070	-2.8076	-1.4063	-21.6760	70.1532	50.0400 
623.138	0.3608	-0.0283	0.9980	1.6479	10.6201	-2.4414	-1.3788	-21.5607	70.1202	50.0400 
623.138	0.3452	-0.0151	0.9976	1.0986	9.3384	-2.3804	-1.3568	-21.4508	70.0873	49.8900 
623.168	0.3345	-0.0156	0.9868	0.5493	8.9722	-2.7466	-1.3348	-21.3464	70.0543	49.9900 
623.168	0.3320	-0.0059	0.9766	-0.2441	8.8501	-3.2959	-1.3184	-21.2421	70.0104	49.9900 
623.168	0.3394	-0.0024	0.9536	-1.2817	8.5449	-3.9673	-1.3074	-21.1487	69.9664	49.8900 
623.184	0.3477	0.0093	0.9492	-1.4038	8.5449	-4.0283	-1.2909	-21.0553	69.9115	49.9900 
623.184	0.3442	0.0156	0.9434	-1.7090	7.2632	-1.5869	-1.2854	-20.9729	69.8730	50.0800 
623.215	0.3364	0.0190	0.9468	-2.0142	6.1035	0.3662	-1.2854	-20.9015	69.8566	50.1800 
623.215	0.3271	0.0215	0.9404	-2.4414	5.9204	1.8311	-1.2964	-20.8301	69.8566	49.9900 
623.247	0.3267	0.0225	0.9307	-2.9297	5.3101	3.1738	-1.3184	-20.7642	69.8730	49.8900 
623.247	0.3354	0.0308	0.9390	-2.6245	5.4321	4.3335	-1.3403	-20.7037	69.9005	49.9900 
623.247	0.3481	0.0376	0.9429	-3.0518	5.4321	5.8594	-1.3733	-20.6433	69.9445	50.0400 
623.247	0.3594	0.0356	0.9619	-3.2959	5.3101	7.3853	-1.4117	-20.5829	69.9994	49.8400 
623.262	0.3643	0.0220	0.9946	-3.4180	2.8076	9.0332	-1.4612	-20.5444	70.0763	50.0400 
623.262	0.3721	0.0054	1.0059	-2.6855	0.2441	10.1929	-1.5106	-20.5334	70.1697	49.8400 
623.278	0.3687	0.0127	1.0122	-2.1362	-2.0752	11.7188	-1.5656	-20.5444	70.2795	49.9900 
623.293	0.3613	0.0015	1.0059	-1.3428	-4.2114	12.9395	-1.6150	-20.5719	70.4004	50.0400 
623.293	0.3652	0.0137	1.0015	-1.0986	-5.6763	12.2070	-1.6589	-20.6213	70.5212	49.8900 
623.293	0.3750	0.0034	0.9956	-0.7935	-6.8970	11.7188	-1.7029	-20.6818	70.6366	50.0400 
623.325	0.3696	-0.0078	0.9897	-0.2441	-8.4839	12.6953	-1.7413	-20.7532	70.7629	50.0400 
623.325	0.3726	-0.0229	0.9902	0.4883	-9.7656	12.0239	-1.7853	-20.8466	70.8948	50.0400 
623.340	0.3784	-0.0313	0.9668	0.1831	-10.8032	10.6812	-1.8237	-20.9509	71.0101	49.8900 
623.356	0.3867	-0.0352	0.9282	0.5493	-10.4980	10.1929	-1.8567	-21.0608	71.1200	49.8900 
623.356	0.3936	-0.0425	0.8940	0.8545	-9.0332	10.8032	-1.8951	-21.1652	71.2408	49.8400 
623.371	0.3877	-0.0449	0.8828	1.2207	-7.4463	10.2539	-1.9281	-21.2531	71.3562	49.8900 
623.387	0.3813	-0.0508	0.8843	0.9155	-5.4321	8.7891	-1.9666	-21.3245	71.4606	49.8400 
623.387	0.3823	-0.0620	0.8950	0.2441	-4.8828	7.2021	-2.0050	-21.3849	71.5485	49.9900 
623.387	0.3789	-0.0762	0.9038	-0.4883	-4.6997	5.7373	-2.0490	-21.4398	71.6254	49.8900 
623.418	0.3667	-0.0815	0.9126	-1.2207	-5.2490	3.7231	-2.0929	-21.4948	71.6858	49.9900 
623.418	0.3623	-0.0835	0.9214	-1.8311	-6.0425	1.2207	-2.1368	-21.5497	71.7188	49.9900 
623.450	0.3726	-0.0757	0.9160	-2.5024	-5.9814	-1.2817	-2.1698	-21.6101	71.7242	49.8900 
623.450	0.3896	-0.0635	0.9199	-3.1738	-5.1270	-3.1128	-2.2028	-21.6760	71.7023	49.8400 
623.450	0.4067	-0.0513	0.9263	-3.0518	-4.2114	-3.7842	-2.2247	-21.7310	71.6638	49.8900 
623.450	0.4146	-0.0400	0.9341	-2.6855	-4.3945	-3.7231	-2.2412	-21.7859	71.6309	49.8400 
623.450	0.4141	-0.0313	0.9321	-2.4414	-4.0894	-3.4180	-2.2522	-21.8408	71.5924	49.9900 
623.465	0.4087	-0.0171	0.9302	-2.0752	-4.5776	-2.9297	-2.2577	-21.9012	71.5594	49.7000 
623.481	0.4146	-0.0078	0.9160	-1.7700	-4.4556	-2.8687	-2.2522	-21.9617	71.5265	49.7500 
623.528	0.4194	-0.0010	0.9077	-1.1597	-3.3569	-2.8076	-2.2412	-22.0166	71.4880	50.2300 
623.528	0.4170	0.0020	0.9209	-1.0376	-3.1128	-2.7466	-2.2302	-22.0605	71.4551	49.7000 
623.528	0.4209	0.0044	0.9248	-0.3662	-4.2725	-2.0752	-2.2083	-22.1210	71.4221	49.8900 
623.559	0.4111	-0.0034	0.9209	0.5493	-5.3101	-2.0142	-2.1863	-22.1814	71.4001	49.8900 
623.559	0.4048	-0.0024	0.9058	1.4038	-5.4321	-1.7700	-2.1588	-22.2473	71.3727	49.8900 
623.559	0.4111	-0.0034	0.9043	2.2583	-4.8828	-2.0752	-2.1204	-22.3077	71.3507	49.8400 
623.559	0.4175	-0.0029	0.9004	2.8687	-3.8452	-1.5259	-2.0764	-22.3627	71.3287	49.8400 
623.559	0.4258	-0.0005	0.9072	2.9907	-3.1738	-1.0986	-2.0270	-22.4121	71.3123	49.8900 
623.575	0.4214	-0.0044	0.9126	2.9907	-3.2349	0.2441	-1.9885	-22.4615	71.3123	49.8900 
623.590	0.4297	-0.0078	0.9048	2.7466	-2.3804	0.5493	-1.9501	-22.5055	71.3177	49.8400 
623.621	0.4146	-0.0117	0.9072	2.9297	-1.9531	1.4648	-1.9226	-22.5330	71.3287	49.8400 
623.621	0.4043	-0.0220	0.9004	3.1738	-3.4790	1.4648	-1.8951	-22.5769	71.3507	50.0800 
623.621	0.4297	-0.0107	0.8784	2.2583	-1.5869	-0.8545	-1.8622	-22.6154	71.3452	49.8900 
623.653	0.4453	0.0059	0.8804	2.9907	-0.3662	0.1831	-1.8237	-22.6483	71.3342	50.0400 
623.653	0.4443	-0.0098	0.9004	2.8687	-0.3052	0.6714	-1.7908	-22.6758	71.3397	49.7500 
623.684	0.4336	-0.0034	0.9155	2.5635	-0.4883	0.4272	-1.7578	-22.6923	71.3342	50.0400 
623.684	0.4160	-0.0098	0.9302	2.3193	-0.7935	0.1831	-1.7303	-22.7087	71.3342	49.8900 
623.684	0.4126	-0.0161	0.9155	2.7466	-0.9155	-0.6104	-1.6974	-22.7307	71.3287	50.0400 
623.684	0.4194	-0.0269	0.9126	2.9907	-0.1831	-1.8311	-1.6589	-22.7472	71.3068	49.9900 
623.699	0.4355	-0.0269	0.9194	3.2349	0.6104	-2.3193	-1.6205	-22.7582	71.2793	49.8900 
623.699	0.4424	-0.0332	0.9438	3.6621	0.0610	-1.8921	-1.5765	-22.7692	71.2518	49.8900 
623.699	0.4429	-0.0313	0.9541	3.5400	-1.6479	-2.1973	-1.5326	-22.7966	71.2299	50.0400 
623.715	0.4355	-0.0293	0.9585	3.4790	-3.4790	-1.6479	-1.4941	-22.8351	71.2079	50.0400 
623.746	0.4248	-0.0356	0.9575	2.9907	-4.5776	-2.0142	-1.4557	-22.8845	71.1859	49.8900 
623.746	0.4048	-0.0391	0.9673	3.3569	-4.5776	-1.7090	-1.4227	-22.9340	71.1694	49.8900 
623.762	0.3887	-0.0430	0.9707	3.6011	-4.7607	-1.7700	-1.3843	-22.9724	71.1530	50.1800 
623.762	0.3755	-0.0439	0.9727	3.6621	-5.6763	-2.8687	-1.3458	-23.0219	71.1255	50.0400 
623.762	0.3818	-0.0425	0.9609	3.4790	-5.7373	-4.6997	-1.3019	-23.0713	71.0815	49.8900 
623.793	0.3916	-0.0405	0.9243	3.0518	-6.4697	-5.6763	-1.2524	-23.1317	71.0266	49.8900 
623.793	0.4043	-0.0298	0.8887	3.1128	-5.4321	-7.3242	-1.1975	-23.1976	70.9497	49.9900 
623.793	0.4072	-0.0190	0.8696	2.8076	-3.4790	-7.3853	-1.1426	-23.2471	70.8673	49.8900 
623.824	0.4053	-0.0078	0.8672	2.8687	-2.2583	-7.4463	-1.0767	-23.2855	70.7849	49.7000 
623.856	0.4146	0.0083	0.8647	2.9297	-1.2207	-7.6294	-1.0107	-23.3185	70.6970	49.7000 
623.856	0.4302	0.0171	0.8774	3.1128	-0.2441	-6.7139	-0.9393	-23.3405	70.6091	49.8900 
623.856	0.4287	0.0093	0.9063	3.2349	-1.4648	-5.6152	-0.8734	-23.3624	70.5377	49.8900 
623.856	0.4233	0.0264	0.9355	3.6621	-3.6011	-4.9438	-0.8020	-23.4009	70.4718	49.8900 
623.856	0.4346	0.0283	0.9429	3.4180	-5.6763	-5.2490	-0.7306	-23.4613	70.4059	49.9900 
623.888	0.4434	0.0498	0.9438	4.0283	-7.3242	-3.6621	-0.6537	-23.5382	70.3455	49.9900 
623.888	0.4473	0.0522	0.9277	5.0659	-7.9956	-1.2817	-0.5768	-23.6316	70.3070	49.8400 
623.888	0.4580	0.0527	0.9194	5.4321	-7.9346	0.3052	-0.4999	-23.7250	70.2905	49.7500 
623.888	0.4517	0.0415	0.9150	6.2866	-7.6294	2.2583	-0.4285	-23.8184	70.2960	49.8400 
623.950	0.4468	0.0439	0.9180	7.1411	-6.9580	4.0283	-0.3571	-23.9008	70.3235	49.9900 
623.950	0.4487	0.0439	0.9170	7.5073	-6.2256	4.6997	-0.2856	-23.9777	70.3564	49.8400 
623.950	0.4478	0.0454	0.9282	8.1177	-6.7749	5.1270	-0.2087	-24.0546	70.3949	49.9900 
623.950	0.4424	0.0547	0.9136	8.3008	-7.6294	7.2021	-0.1318	-24.1370	70.4498	49.7500 
623.950	0.4365	0.0566	0.9048	8.8501	-7.7515	9.7656	-0.0659	-24.2249	70.5267	49.9900 
623.950	0.4263	0.0518	0.8931	8.7891	-7.8125	11.5967	-0.0110	-24.3127	70.6311	49.8900 
623.981	0.4199	0.0381	0.8770	8.3008	-7.1411	12.1460	0.0275	-24.3951	70.7465	49.8900 
623.981	0.4204	0.0356	0.8721	8.4839	-6.5308	12.5122	0.0714	-24.4666	70.8618	49.8900 
623.981	0.4170	0.0220	0.8579	8.6060	-5.2490	12.6953	0.1099	-24.5325	70.9882	49.8900 
623.981	0.4233	0.0190	0.8491	8.5449	-2.9907	12.8784	0.1428	-24.5819	71.1145	49.8900 
623.996	0.4326	0.0088	0.8496	7.9956	-0.7324	13.1226	0.1593	-24.6094	71.2463	49.8400 
624.028	0.4365	-0.0020	0.8594	7.3853	1.6479	12.8784	0.1758	-24.6094	71.3782	49.8400 
624.028	0.4468	-0.0151	0.8696	6.5308	3.4180	11.9629	0.1813	-24.5984	71.5100	49.8400 
624.028	0.4624	-0.0244	0.8833	5.7983	4.5166	10.1318	0.1813	-24.5709	71.6199	49.7000 
624.059	0.4751	-0.0352	0.8975	5.2490	4.6997	8.5449	0.1813	-24.5435	71.7188	49.7500 
624.075	0.4819	-0.0439	0.9126	5.2490	4.5166	7.4463	0.1813	-24.5215	71.8011	49.8400 
624.075	0.4751	-0.0483	0.9292	4.9438	2.9297	6.2256	0.1813	-24.4995	71.8726	49.8900 
624.075	0.4644	-0.0439	0.9355	4.7607	1.2817	5.6152	0.1868	-24.4940	71.9385	50.2800 
624.090	0.4478	-0.0352	0.9370	3.9063	0.6104	4.7607	0.1923	-24.4940	71.9879	49.6500 
624.106	0.4375	-0.0308	0.9277	3.5400	-0.3662	3.1738	0.1978	-24.4995	72.0209	49.9900 
624.106	0.4365	-0.0171	0.9263	2.5635	-1.1597	2.0752	0.2032	-24.5160	72.0428	49.8400 
624.106	0.4385	-0.0059	0.9180	1.8921	-1.7700	1.5869	0.2142	-24.5380	72.0483	49.7000 
624.137	0.4390	0.0029	0.9102	1.6479	-2.3804	1.2207	0.2252	-24.5709	72.0483	49.8900 
624.137	0.4443	0.0073	0.9038	1.8921	-2.7466	1.5259	0.2362	-24.6039	72.0483	49.8400 
624.168	0.4443	0.0103	0.8906	2.0752	-2.5024	1.7700	0.2527	-24.6423	72.0483	49.8400 
624.168	0.4468	0.0171	0.8940	2.1973	-1.7090	2.0752	0.2637	-24.6698	72.0538	49.8400 
624.168	0.4443	0.0220	0.8892	2.3193	-1.4648	2.8076	0.2802	-24.6973	72.0648	49.8900 
624.184	0.4492	0.0186	0.8774	2.3193	0.0000	2.4414	0.2966	-24.7137	72.0758	49.8900 
624.200	0.4443	0.0249	0.8936	2.8076	0.7324	3.3569	0.3131	-24.7192	72.0923	49.8400 
624.200	0.4546	0.0234	0.8994	2.3804	-0.6714	4.0894	0.3296	-24.7357	72.1143	49.8400 
624.200	0.4648	0.0200	0.8774	2.1362	-0.1221	4.0894	0.3406	-24.7577	72.1417	49.7000 
624.231	0.4604	0.0225	0.8984	1.6479	-0.4272	5.8594	0.3351	-24.7797	72.1802	49.8900 
624.262	0.4604	0.0029	0.9092	1.3428	-1.6479	4.9438	0.3296	-24.8071	72.2241	49.8400 
624.262	0.4565	0.0122	0.9048	0.6714	-2.0142	3.9673	0.3186	-24.8346	72.2516	49.8400 
624.262	0.4443	-0.0020	0.9077	0.4272	-2.0142	3.6621	0.3021	-24.8676	72.2791	49.8400 
624.262	0.4429	-0.0112	0.8931	0.3662	-2.3804	2.6855	0.2856	-24.9005	72.3010	49.9900 
624.278	0.4463	-0.0098	0.8896	0.3052	-2.1973	0.9766	0.2802	-24.9335	72.3065	49.6500 
624.278	0.4536	-0.0054	0.8770	0.5493	-1.4038	0.1831	0.2802	-24.9609	72.2955	49.8900 
624.278	0.4604	0.0039	0.8799	0.5493	-0.1831	0.0610	0.2802	-24.9774	72.2845	49.6500 
624.293	0.4722	0.0029	0.8877	0.6104	0.6714	0.1831	0.2856	-24.9939	72.2736	49.8900 
624.325	0.4658	0.0020	0.8965	1.1597	0.5493	0.1221	0.2966	-25.0049	72.2626	49.9900 
624.325	0.4614	0.0029	0.8926	1.1597	0.9766	0.4883	0.3021	-25.0104	72.2571	49.9900 
624.340	0.4482	0.0044	0.9072	1.4648	1.5259	1.0986	0.3076	-25.0049	72.2516	49.7000 
624.356	0.4429	0.0083	0.9165	1.3428	2.0142	0.9155	0.3186	-24.9884	72.2406	49.7000 
624.356	0.4375	0.0073	0.9238	1.7090	1.6479	1.5259	0.3296	-24.9774	72.2406	49.7500 
624.372	0.4404	0.0112	0.9214	1.8311	0.8545	2.3193	0.3406	-24.9664	72.2406	49.6500 
624.403	0.4395	0.0063	0.9243	1.8921	0.0610	2.3804	0.3516	-24.9664	72.2516	49.8400 
624.403	0.4351	0.0039	0.9180	2.1973	-0.1831	2.8687	0.3571	-24.9719	72.2626	49.8400 
624.403	0.4263	0.0068	0.9063	2.0752	0.0000	3.9063	0.3625	-24.9719	72.2900	49.8900 
624.403	0.4146	0.0103	0.8989	2.1973	-0.2441	4.5166	0.3680	-24.9719	72.3175	49.8900 
624.450	0.4072	0.0200	0.8994	1.9531	-0.1221	4.2114	0.3680	-24.9719	72.3450	49.8400 
624.465	0.4063	0.0117	0.8926	1.8311	0.3052	4.2114	0.3680	-24.9664	72.3669	49.8900 
624.465	0.4170	0.0093	0.8999	1.9531	0.7324	3.9063	0.3735	-24.9609	72.3889	49.8400 
624.465	0.4194	-0.0039	0.9077	2.3804	1.0376	3.9063	0.3735	-24.9500	72.4219	49.8400 
624.497	0.4326	-0.0063	0.9136	2.5024	0.6714	3.7231	0.3735	-24.9445	72.4493	50.0400 
624.497	0.4331	0.0054	0.9209	2.1973	1.1597	4.0283	0.3790	-24.9335	72.4768	49.8400 
624.497	0.4370	0.0117	0.9287	1.8921	0.9766	4.2725	0.3790	-24.9280	72.5043	49.8400 
624.497	0.4429	0.0161	0.9248	2.1362	0.7935	4.7607	0.3790	-24.9225	72.5317	49.8900 
624.497	0.4434	0.0127	0.9336	1.9531	0.3052	5.3101	0.3790	-24.9280	72.5702	49.7500 
624.497	0.4517	0.0059	0.9243	1.7090	-0.0610	5.1880	0.3680	-24.9335	72.6086	49.8400 
624.528	0.4561	-0.0010	0.9321	1.7090	-0.2441	4.5166	0.3625	-24.9445	72.6471	49.8900 
624.528	0.4561	-0.0049	0.9263	1.2207	-0.9766	4.3335	0.3516	-24.9554	72.6801	49.9900 
624.528	0.4531	-0.0063	0.9243	1.5259	-1.5869	4.5166	0.3406	-24.9774	72.7130	49.7500 
624.560	0.4531	-0.0107	0.9238	1.2817	-2.1973	4.4556	0.3241	-25.0049	72.7515	49.8900 
624.560	0.4473	-0.0073	0.9082	1.0986	-2.8687	4.0894	0.3131	-25.0433	72.7789	49.8900 
624.560	0.4473	-0.0146	0.8970	0.9766	-2.5024	3.8452	0.3021	-25.0763	72.8064	49.8400 
624.560	0.4487	-0.0112	0.8906	0.8545	-2.0142	2.8076	0.2856	-25.1093	72.8284	49.8400 
624.591	0.4448	-0.0151	0.8926	0.7935	-1.0376	2.1362	0.2747	-25.1312	72.8394	49.8400 
624.622	0.4443	-0.0078	0.9033	0.4272	-0.9155	1.7090	0.2692	-25.1477	72.8448	49.8900 
624.622	0.4355	0.0010	0.9136	0.5493	-0.7324	1.7700	0.2637	-25.1532	72.8448	49.7000 
624.622	0.4297	0.0078	0.9131	0.4883	-1.0986	1.7700	0.2582	-25.1642	72.8448	49.6500 
624.622	0.4312	0.0034	0.9121	1.1597	-1.0986	1.8921	0.2637	-25.1752	72.8503	49.7000 
624.653	0.4312	0.0103	0.9155	1.2207	-1.0986	1.5259	0.2692	-25.1862	72.8448	49.8400 
624.653	0.4351	0.0103	0.9121	1.4648	-0.9766	2.1362	0.2747	-25.2026	72.8448	49.8400 
624.653	0.4321	0.0142	0.9028	1.1597	-0.5493	1.9531	0.2802	-25.2081	72.8448	50.0400 
624.685	0.4326	0.0117	0.9102	1.2207	-0.4272	2.4414	0.2856	-25.2136	72.8503	49.8900 
624.685	0.4307	0.0210	0.9072	0.9155	-0.3052	3.1738	0.2856	-25.2191	72.8558	49.8900 
624.685	0.4287	0.0156	0.9004	0.9766	0.0000	3.8452	0.2856	-25.2246	72.8723	49.7000 
624.685	0.4272	0.0142	0.8960	1.0986	0.9766	4.2725	0.2802	-25.2191	72.8998	49.8400 
624.716	0.4136	0.0024	0.9048	0.9766	1.7090	4.3945	0.2692	-25.2026	72.9272	49.7500 
624.716	0.4072	-0.0083	0.9150	0.9155	0.9155	3.3569	0.2582	-25.1862	72.9492	49.9900 
624.716	0.4160	-0.0181	0.9067	0.6714	0.6714	1.8311	0.2472	-25.1697	72.9547	49.7500 
624.746	0.4185	-0.0122	0.9131	0.7935	0.6104	1.4038	0.2417	-25.1642	72.9602	49.8400 
624.746	0.4312	-0.0142	0.9067	0.4272	0.8545	1.4038	0.2362	-25.1532	72.9602	49.8400 
624.746	0.4346	-0.0107	0.9077	0.1221	0.6104	1.2817	0.2252	-25.1477	72.9547	49.8900 
624.762	0.4370	0.0010	0.9150	0.3052	0.6714	1.8921	0.2197	-25.1422	72.9547	49.8900 
624.778	0.4380	0.0010	0.9102	0.0000	0.7324	2.2583	0.2087	-25.1367	72.9602	49.8400 
624.778	0.4360	0.0068	0.8994	0.0000	1.7700	3.1128	0.1978	-25.1257	72.9712	50.0400 
624.778	0.4395	-0.0010	0.9097	0.0000	0.4883	2.7466	0.1813	-25.1202	72.9877	49.8900 
624.793	0.4517	0.0112	0.8882	-0.6104	0.6714	2.7466	0.1703	-25.1257	72.9932	49.8400 
624.825	0.4556	0.0176	0.8955	-0.7935	1.9531	2.8076	0.1538	-25.1202	73.0042	49.8400 
624.825	0.4609	0.0059	0.9175	-0.8545	2.1362	2.9297	0.1318	-25.1038	73.0151	50.0800 
624.825	0.4575	0.0093	0.9214	-0.6104	1.2207	3.6011	0.1154	-25.0983	73.0316	49.8400 
624.856	0.4346	-0.0020	0.9243	-0.1831	0.3052	4.4556	0.0879	-25.0928	73.0591	49.7500 
624.888	0.4219	-0.0171	0.9199	-0.1221	0.0000	5.0049	0.0604	-25.0928	73.0975	49.8900 
624.888	0.4141	-0.0181	0.9263	1.1597	-1.0986	3.7231	0.0439	-25.0928	73.1305	50.0400 
624.888	0.4238	-0.0049	0.9180	1.6479	-1.3428	3.1738	0.0385	-25.1038	73.1470	49.7000 
624.888	0.4409	0.0098	0.9004	1.8311	-1.0376	2.5635	0.0439	-25.1202	73.1580	49.7500 
624.888	0.4502	0.0078	0.8989	1.5259	-0.4883	2.3804	0.0549	-25.1367	73.1689	49.9900 
624.888	0.4570	0.0059	0.9053	1.6479	-0.3052	2.6855	0.0549	-25.1477	73.1744	49.6500 
624.919	0.4570	0.0000	0.9048	0.9155	-0.3662	2.1973	0.0604	-25.1587	73.1854	50.0400 
624.934	0.4473	-0.0034	0.8999	0.6104	0.1221	2.6855	0.0549	-25.1697	73.1909	49.8900 
624.934	0.4321	-0.0127	0.8999	0.8545	0.6104	3.6011	0.0439	-25.1697	73.2129	49.8900 
624.950	0.4209	-0.0288	0.8950	0.7324	0.9155	2.3804	0.0275	-25.1587	73.2349	50.0400 
624.965	0.4248	-0.0293	0.8906	1.0986	0.9766	1.2817	0.0220	-25.1532	73.2404	50.0400 
624.965	0.4380	-0.0254	0.8994	0.9155	0.9155	0.3662	0.0220	-25.1477	73.2349	49.7000 
624.981	0.4478	-0.0234	0.8965	0.8545	1.5259	-0.2441	0.0220	-25.1367	73.2239	49.8900 
624.981	0.4473	-0.0156	0.9053	0.8545	2.0142	-0.1221	0.0220	-25.1257	73.2074	49.8400 
624.997	0.4492	-0.0171	0.8950	0.8545	2.6855	-0.0610	0.0275	-25.1093	73.1909	49.6500 
624.997	0.4341	-0.0200	0.9009	1.0376	3.2959	0.9766	0.0275	-25.0818	73.1854	49.7000 
625.028	0.4277	-0.0132	0.9038	1.3428	3.6621	0.6104	0.0275	-25.0488	73.1799	49.8400 
625.028	0.4272	-0.0044	0.9077	1.4648	3.4180	0.0000	0.0385	-25.0159	73.1635	49.8400 
625.028	0.4346	-0.0005	0.9160	1.5869	3.3569	0.0000	0.0549	-24.9774	73.1415	49.8400 
625.059	0.4409	-0.0049	0.9268	1.4648	3.0518	0.7935	0.0659	-24.9500	73.1305	49.8400 
625.059	0.4434	-0.0005	0.9399	1.2817	1.4648	0.6714	0.0769	-24.9335	73.1195	50.0400 
625.059	0.4429	0.0049	0.9380	0.7324	0.4883	0.4883	0.0824	-24.9280	73.1030	49.8400 
625.091	0.4360	0.0000	0.9375	0.9766	-0.4272	1.2207	0.0824	-24.9280	73.0920	49.8900 
625.091	0.4277	-0.0078	0.9326	1.4038	-1.2817	1.4038	0.0879	-24.9390	73.0920	49.8400 
625.091	0.4263	-0.0029	0.9199	1.6479	-1.2207	0.3662	0.0989	-24.9554	73.0811	49.8900 
625.106	0.4351	0.0005	0.9048	1.6479	-1.1597	-0.0610	0.1099	-24.9719	73.0591	49.6500 
625.122	0.4399	0.0088	0.8975	1.9531	-0.4272	-0.0610	0.1318	-24.9829	73.0371	49.7500 
625.122	0.4458	0.0059	0.8950	1.5259	0.1831	0.3052	0.1483	-24.9939	73.0261	49.7000 
625.122	0.4375	0.0078	0.8979	1.6479	0.4883	0.8545	0.1648	-24.9939	73.0096	49.8400 
625.137	0.4263	0.0098	0.9072	1.4648	0.5493	1.4648	0.1758	-24.9884	73.0042	49.7000 
625.169	0.4160	0.0093	0.9224	2.1973	0.0610	1.4038	0.1923	-24.9829	72.9987	49.8900 
625.169	0.4136	0.0098	0.9355	2.0752	-1.0376	0.9766	0.2087	-24.9829	72.9932	49.7000 
625.169	0.4199	0.0190	0.9321	2.5635	-1.7700	1.4648	0.2307	-24.9994	72.9822	49.9900 
625.200	0.4277	0.0190	0.9199	2.6245	-2.6855	2.1362	0.2527	-25.0214	72.9767	49.8400 
625.200	0.4351	0.0166	0.9126	2.3193	-2.8687	2.3804	0.2692	-25.0488	72.9822	49.7000 
625.200	0.4419	0.0176	0.9038	1.7090	-2.1362	2.8076	0.2802	-25.0763	72.9877	49.7500 
625.232	0.4414	0.0073	0.9063	1.4648	-1.6479	3.4180	0.2802	-25.1038	73.0042	49.7500 
625.232	0.4453	-0.0015	0.9116	1.0376	-1.4648	3.2959	0.2747	-25.1257	73.0261	49.8900 
625.232	0.4419	-0.0132	0.9209	1.5259	-2.0752	2.9907	0.2692	-25.1477	73.0481	49.8400 
625.232	0.4404	-0.0190	0.9165	1.4648	-2.2583	2.8687	0.2637	-25.1752	73.0646	49.8400 
625.278	0.4404	-0.0220	0.9160	1.5869	-2.4414	2.6245	0.2582	-25.2026	73.0811	49.7000 
625.278	0.4419	-0.0151	0.9131	1.7700	-2.4414	2.6245	0.2527	-25.2301	73.0975	49.5600 
625.278	0.4370	-0.0186	0.9043	1.5869	-2.6245	2.2583	0.2527	-25.2576	73.1140	49.8900 
625.309	0.4346	-0.0142	0.9053	1.8311	-2.8687	1.7090	0.2582	-25.2850	73.1195	49.8400 
625.309	0.4360	-0.0142	0.9067	1.7090	-2.7466	1.4038	0.2582	-25.3180	73.1250	49.8400 
625.309	0.4331	-0.0083	0.9014	1.7700	-2.5024	1.2817	0.2637	-25.3455	73.1250	49.8400 
625.309	0.4365	0.0059	0.9014	1.6479	-2.3193	1.2817	0.2747	-25.3729	73.1195	49.7500 
625.325	0.4355	0.0103	0.9033	1.6479	-2.1362	1.7090	0.2856	-25.3949	73.1195	49.7000 
625.340	0.4419	0.0171	0.9097	1.9531	-2.4414	3.1128	0.2966	-25.4224	73.1250	49.8400 
625.340	0.4360	0.0166	0.9077	2.3193	-3.2349	4.1504	0.3076	-25.4553	73.1525	50.0400 
625.340	0.4395	0.0166	0.9053	2.2583	-2.2583	3.9673	0.3131	-25.4828	73.1744	49.8400 
625.356	0.4360	0.0205	0.9067	1.7700	-1.4038	5.9204	0.3131	-25.4993	73.2129	49.5600 
625.356	0.4380	0.0269	0.9028	2.1362	-2.6855	6.6528	0.3076	-25.5212	73.2623	49.8900 
625.372	0.4414	0.0356	0.9028	2.1362	-1.9531	7.4463	0.3076	-25.5487	73.3173	49.6500 
625.387	0.4360	0.0410	0.9106	1.7700	-2.5024	7.9956	0.3021	-25.5707	73.3722	49.8900 
625.418	0.4399	0.0352	0.9014	1.7090	-2.5635	7.8125	0.2911	-25.6036	73.4326	49.8900 
625.418	0.4292	0.0073	0.9077	1.4038	-2.1362	7.9346	0.2747	-25.6201	73.4985	49.8900 
625.418	0.4175	-0.0269	0.9224	1.6479	-1.1597	6.8970	0.2472	-25.6311	73.5645	49.8400 
625.450	0.4238	-0.0435	0.9077	2.9297	-0.4272	5.0049	0.2307	-25.6311	73.6194	49.6500 
625.450	0.4360	-0.0430	0.8916	3.4790	0.4272	3.8452	0.2252	-25.6311	73.6633	49.8900 
625.481	0.4478	-0.0361	0.8809	3.7231	1.9531	3.6011	0.2252	-25.6201	73.6963	49.5600 
625.481	0.4609	-0.0381	0.8848	3.6011	2.3804	2.8687	0.2307	-25.6091	73.7238	49.6500 
625.481	0.4648	-0.0366	0.9004	3.1738	1.7700	2.0142	0.2417	-25.5981	73.7457	49.8400 
625.481