20 steps
StartTime: 2017-07-14 13:50:30.215
Time(s)	ax(g)	ay(g)	az(g)	wx(deg/s)	wy(deg/s)	wz(deg/s)	AngleX(deg)	AngleY(deg)	AngleZ(deg)	T(°)	hx	hy	hz	Pressure(Pa)	Altitude(m) 
152.385	-0.1675	-0.0781	1.0469	-0.0610	2.2583	-3.5400	-3.6584	10.2283	78.7280	43.4700	173	36	-105	100595	0.61 
152.464	-0.1987	-0.1284	1.0557	-0.5493	3.3569	-2.5635	-3.8342	10.4370	78.8928	43.4700	174	41	-105	100595	0.61 
152.589	-0.1860	-0.1382	1.0317	-0.4272	2.3804	-0.7324	-4.0045	10.4150	78.9423	43.4800	174	40	-105	100595	0.61 
152.667	-0.1440	-0.1660	1.0063	1.5259	4.6997	-0.7935	-4.1638	10.4095	79.0631	43.4700	171	39	-104	100595	0.61 
152.792	-0.1992	-0.1270	1.0322	7.3242	2.8687	8.3618	-3.8947	10.9314	79.2444	43.4600	173	41	-103	100595	0.61 
152.886	-0.1279	0.0566	1.1060	13.5498	-3.5400	5.9204	-2.4170	11.3434	79.9365	43.4600	176	38	-100	100595	0.61 
152.980	-0.1714	0.1455	0.9775	23.3765	10.0098	-4.3945	-0.4230	11.1127	79.4641	43.4800	175	33	-100	100595	0.61 
153.104	-0.0566	0.0918	0.9863	10.9863	18.8599	0.6714	1.7029	12.2827	79.5190	43.4800	178	31	-100	100595	0.61 
153.229	-0.0444	0.1274	1.0464	2.8687	7.8125	-1.7700	2.4774	13.2770	79.1949	43.4600	181	28	-98	100594	0.61 
153.276	-0.0132	0.0459	1.1128	-1.2817	0.7324	-6.6528	2.7081	12.8430	79.2883	43.4700	183	26	-91	100595	0.61 
153.448	-0.0400	0.2065	1.3101	-7.8125	-13.1226	-22.0337	2.3621	11.6400	77.6184	43.4900	187	32	-94	100595	0.61 
153.511	-0.3750	-0.0894	0.7661	-13.7329	-11.8408	-1.5259	1.0547	10.8710	76.3715	43.4700	183	43	-100	100596	0.61 
153.604	-0.2686	0.0098	0.8481	-27.2217	3.1128	21.7896	-0.9338	11.4148	76.4044	43.4700	183	40	-101	100596	0.61 
153.714	-0.1753	-0.1187	0.9741	-22.6440	16.2354	15.5029	-3.6365	12.9309	78.7939	43.4400	189	40	-98	100596	0.61 
153.808	-0.1060	-0.2793	0.9541	-1.2207	7.8125	-18.7988	-5.4547	13.4088	79.0466	43.4600	195	42	-95	100597	0.61 
153.933	-0.0669	-0.0430	1.1353	15.5029	-17.9443	1.8921	-5.2075	13.1122	77.8436	43.4500	195	43	-91	100596	0.61 
153.995	-0.1294	0.0796	1.6162	-1.9531	-29.9072	18.9209	-4.3945	10.8051	78.5413	43.4600	192	37	-95	100597	0.61 
154.120	-0.4595	0.0928	0.8032	-0.9766	-10.5591	-14.9536	-4.9219	9.4263	80.4639	43.4600	188	39	-104	100597	0.61 
154.214	-0.3096	-0.2959	0.8496	25.9399	13.9771	-49.3774	-4.2847	10.2942	78.6017	43.4300	189	43	-105	100597	0.61 
154.292	-0.1934	0.1108	0.9346	26.1841	10.3760	-37.0483	-1.5820	11.2445	73.1195	43.4400	189	50	-108	100597	0.61 
154.417	-0.0371	0.1899	0.9048	0.9155	-0.3662	-15.5029	0.0110	10.9039	70.1971	43.4500	184	54	-113	100597	0.61 
154.573	-0.1431	0.4048	1.3491	3.1128	-15.7471	-26.4893	-0.4559	9.3384	67.7527	43.4500	181	62	-117	100597	0.61 
154.651	-0.6133	-0.0762	0.9146	4.3945	-13.2446	-9.8877	0.2197	7.1027	65.8575	43.4400	176	65	-122	100596	0.61 
154.714	-0.2290	0.0581	0.9365	-21.1182	-1.7090	39.6729	0.0165	8.0640	68.9612	43.4100	173	63	-125	100595	0.61 
154.808	-0.1143	-0.0791	0.7378	-30.5786	8.6060	49.9268	-2.3895	8.6353	73.9325	43.4300	179	58	-121	100595	0.61 
154.933	-0.0293	-0.2358	0.8545	-8.3618	2.9907	28.7476	-4.5428	9.4812	78.8708	43.4300	191	50	-117	100595	0.61 
155.026	-0.1719	-0.2852	1.2231	7.9346	-21.4844	61.3403	-3.6365	9.1296	82.2931	43.4300	195	41	-115	100595	0.61 
155.136	-0.2422	0.1328	1.2070	-1.0986	-29.3579	43.3350	-2.9993	6.7017	84.6606	43.4300	190	30	-120	100595	0.61 
155.230	-0.2891	-0.0757	1.1108	6.7139	14.7095	-24.1089	-4.2188	7.9266	85.3912	43.4100	192	25	-125	100595	0.61 
155.324	-0.1787	0.0513	0.8340	40.8936	15.1367	-52.9175	-2.3840	9.5691	81.9250	43.4100	195	27	-124	100595	0.61 
155.433	-0.0659	0.2554	0.8804	15.6250	6.5308	-34.7900	0.4285	10.6293	76.4923	43.4200	193	38	-121	100595	0.61 
155.589	0.0259	0.0068	1.0420	-1.4038	-19.8975	-23.6816	0.7690	9.8053	74.1687	43.4200	197	46	-124	100595	0.61 
155.683	0.1597	-0.1143	1.4282	0.9155	-21.9727	-8.0566	1.2030	7.6959	73.2404	43.4200	192	48	-127	100595	0.61 
155.745	-0.3647	-0.2192	1.2676	-3.9063	7.5073	-0.1831	1.5985	8.1354	71.4771	43.4100	191	52	-130	100596	0.61 
155.839	-0.3115	-0.0391	0.6997	-39.3066	12.6343	27.7710	-0.1703	9.3713	72.4219	43.4200	191	50	-135	100596	0.61 
155.964	-0.0571	-0.3096	0.8271	-15.3198	4.8218	17.8833	-3.3124	10.9808	75.3113	43.4100	199	51	-128	100595	0.61 
156.042	-0.1084	0.1118	1.1147	13.2446	-14.2822	45.8374	-2.7356	10.8655	76.9812	43.4000	205	48	-123	100596	0.61 
156.136	-0.2559	0.4922	1.2617	-6.1035	-33.0200	56.8237	-1.7249	7.7399	78.7555	43.4100	207	38	-128	100596	0.61 
156.323	-0.2339	-0.1592	1.1123	-2.6245	21.4844	8.7891	-3.5596	7.5366	82.8754	43.4000	205	34	-139	100596	0.61 
156.370	-0.1543	0.1162	0.6885	30.7617	21.1182	-29.8462	-2.1808	9.7284	81.6669	43.3900	211	29	-134	100596	0.61 
156.433	-0.1113	0.1523	0.9370	12.2681	8.3618	-35.0952	0.0000	11.5796	78.3380	43.4000	211	30	-129	100596	0.61 
156.558	-0.0659	0.0269	1.1333	-4.5776	-19.7144	-19.8364	-0.1538	10.8765	75.3497	43.4000	209	42	-130	100596	0.61 
156.652	0.2183	-0.0693	1.3911	2.9297	-31.4941	-17.0288	0.0879	8.3771	73.9050	43.3900	207	49	-135	100597	0.61 
156.777	-0.4268	-0.0811	1.3657	2.9297	5.0659	27.5269	1.3293	8.3936	71.3232	43.3800	200	55	-144	100596	0.61 
156.902	-0.2661	-0.0205	0.7905	-42.3584	10.1929	49.8047	-0.1428	8.6627	74.4873	43.4100	197	54	-144	100596	0.61 
156.949	-0.1221	-0.3120	0.8457	-18.7988	0.4272	30.8228	-3.2465	9.8383	78.7335	43.3800	207	52	-136	100597	0.61 
157.073	-0.0166	0.0151	1.0786	10.0098	-13.7939	22.0337	-3.3838	9.4867	80.1288	43.3900	209	48	-135	100596	0.61 
157.214	0.1172	0.2510	1.4238	11.6577	-37.7197	-15.2588	-2.3730	6.6357	82.0898	43.3900	209	43	-137	100597	0.61 
157.277	-0.3687	-0.0767	1.0322	-11.2305	9.3994	-33.0811	-3.3069	5.2295	85.7922	43.3800	197	33	-144	100597	0.61 
157.386	-0.2319	-0.1606	0.8359	33.3252	24.7192	-67.8101	-2.7740	7.1356	83.0731	43.3900	200	34	-147	100597	0.61 
157.464	-0.0459	0.1675	0.8853	20.0806	4.9438	-40.9546	0.1703	8.4210	77.4921	43.3800	203	46	-143	100597	0.61 
157.589	0.0078	0.0981	1.0137	-8.5449	-14.4043	4.7607	0.8624	7.9431	75.5585	43.4000	198	53	-143	100597	0.61 
157.683	-0.0562	0.2861	1.3823	-1.0986	-13.1836	14.7705	0.9064	6.4490	74.5313	43.3900	193	58	-143	100597	0.61 
157.792	-0.3643	-0.0454	0.9102	4.3945	-4.5166	27.9541	1.8347	6.1414	72.5812	43.3800	184	62	-145	100597	0.61 
157.933	-0.2549	0.0181	0.8657	-29.1138	9.9487	18.9819	0.1593	6.9324	73.0701	43.3700	185	61	-148	100597	0.61 
157.995	-0.1333	-0.2026	0.9634	-18.1274	12.0850	22.1558	-2.5708	8.4375	75.3937	43.3600	189	63	-142	100597	0.61 
158.089	0.0571	0.0171	0.9248	6.4697	3.9063	14.7705	-3.3179	8.5968	76.9263	43.3700	189	61	-135	100597	0.61 
158.214	0.0215	-0.4258	1.4868	6.5308	-16.2964	-43.7012	-2.9828	7.5916	78.6237	43.3600	191	55	-133	100597	0.61 
158.277	-0.6763	-0.4214	0.9048	-42.3584	-19.9585	46.8140	-3.5046	5.6744	82.5787	43.3600	180	50	-135	100597	0.61 
158.417	-0.1211	-0.4312	0.8643	25.5127	19.5923	-20.6299	-4.2572	7.0862	83.7927	43.3700	182	43	-136	100597	0.61 
158.480	-0.1563	0.1992	0.8066	37.8418	12.4512	-56.3965	-0.7690	8.5968	78.2611	43.3400	181	46	-133	100598	0.61 
158.589	-0.0220	0.2974	0.9414	-6.9580	8.4229	-18.3105	1.0767	9.0253	73.6798	43.3500	179	53	-134	100598	0.61 
158.699	-0.1680	0.2212	1.2305	2.1973	-10.6812	-28.3813	0.0824	8.0090	71.9275	43.3400	176	56	-130	100598	0.61 
158.839	-0.5928	-0.0210	1.2261	25.8179	-14.8926	-54.8096	0.2252	6.3995	69.2798	43.3400	162	59	-134	100598	0.61 
158.996	-0.2173	0.2305	0.8960	-30.2734	9.7046	32.7148	1.5161	7.3059	70.0323	43.3200	159	56	-135	100598	0.61 
159.027	-0.0986	-0.2788	0.9058	-30.4565	15.0146	31.6772	-1.9226	9.1736	74.5532	43.3300	166	53	-127	100598	0.61 
159.090	0.0303	-0.1929	0.8813	0.1221	11.9019	1.6479	-3.6969	9.9042	76.9537	43.3200	171	46	-123	100597	0.61 
159.214	-0.0669	-0.4199	1.2397	5.9814	-21.1792	46.7529	-2.5653	9.3713	79.0741	43.3200	175	40	-120	100597	0.61 
159.308	-0.6167	0.1294	1.4731	-34.1187	-15.0757	67.8101	-2.4170	6.5259	80.5627	43.3400	170	32	-120	100598	0.61 
159.433	-0.2529	-0.2070	0.8857	14.8315	23.7427	6.2866	-3.8397	6.9653	82.0624	43.3300	165	29	-127	100597	0.61 
159.511	-0.1685	0.3794	0.9419	32.7148	9.3994	-38.3301	-1.6205	9.3439	77.7667	43.3200	165	30	-119	100597	0.61 
159.605	-0.0171	0.2134	0.8882	0.9766	2.9297	-12.8784	0.2692	9.2395	75.8716	43.3100	165	34	-119	100596	0.61 
159.746	-0.0557	0.0254	1.1948	-6.1646	-17.7002	-12.1460	-0.2802	8.3221	75.4761	43.3300	168	35	-121	100596	0.61 
159.824	-0.2397	-0.0820	1.2861	7.9346	-27.0386	-50.9033	-0.1923	6.0150	75.1904	43.3200	162	33	-123	100597	0.61 
159.902	-0.1489	0.1445	0.9204	-11.2915	-0.4272	48.5840	1.3568	6.1853	73.1030	43.3200	158	33	-129	100597	0.61 
160.027	-0.1626	-0.0679	0.7910	-41.5649	8.4229	53.5889	-1.0327	7.3938	76.2012	43.3200	162	32	-125	100597	0.61 
160.121	0.0049	-0.2710	0.8350	-9.7656	0.8545	28.2593	-3.7848	8.4155	81.6119	43.3000	165	25	-120	100596	0.61 
160.246	-0.0898	0.0640	1.1245	4.6387	0.1221	27.8931	-3.3783	8.9154	83.1940	43.3200	170	16	-118	100597	0.61 
160.371	0.0737	0.2998	1.4736	8.3618	-21.1792	-26.9165	-3.4882	7.7838	84.7046	43.3200	168	10	-117	100596	0.61 
160.433	-0.5527	-0.1470	0.7280	-27.0996	-19.4702	25.5737	-5.0537	6.3666	89.5056	43.3300	163	3	-120	100596	0.61 
160.558	-0.4473	-0.4136	1.0313	33.2031	22.7051	-65.4297	-5.1251	7.9376	89.6155	43.3300	166	2	-122	100596	0.61 
160.636	-0.0332	0.0811	0.8574	21.2402	12.3291	-22.0947	-1.0986	8.0585	84.3036	43.3200	167	6	-117	100596	0.61 
160.730	-0.0171	0.2173	0.9019	-2.8687	9.2163	-3.1738	0.1154	8.3771	82.2437	43.3200	170	7	-116	100596	0.61 
160.840	-0.0957	0.1948	1.2539	5.5542	-0.4272	-37.8418	-0.1099	7.6740	81.0736	43.3200	169	13	-115	100596	0.61 
160.933	-0.4727	-0.2827	1.1509	12.8174	-2.9297	-42.6636	0.1318	6.5479	79.3433	43.3300	169	14	-113	100596	0.61 
161.058	-0.1079	0.2192	0.8789	-21.6064	12.2681	20.2026	0.9283	7.3499	79.5795	43.3200	168	20	-114	100596	0.61 
161.137	-0.1772	-0.2256	0.9565	-26.1841	12.0850	26.3672	-1.8896	8.9648	82.6666	43.3000	174	15	-113	100596	0.61 
161.277	0.0137	-0.1616	0.8730	0.0000	7.2021	3.2349	-3.4552	9.1077	85.2100	43.3100	175	11	-110	100596	0.61 
161.402	-0.0366	-0.0552	1.1655	4.8828	-16.0522	33.9355	-2.8125	9.1351	86.7645	43.3100	179	10	-106	100596	0.61 
161.465	-0.1528	0.0918	1.4092	-1.1597	-45.5322	57.7393	-2.1753	6.6687	88.3575	43.2900	181	7	-109	100596	0.61 
161.574	-0.1631	-0.0405	0.8398	2.5635	11.9019	-34.5459	-3.6804	6.0645	90.8734	43.3200	179	4	-115	100596	0.61 
161.699	-0.2578	0.0840	1.0063	43.6401	10.8032	-79.5288	-2.4554	8.3386	87.7643	43.3000	177	8	-112	100597	0.61 
161.793	-0.0376	0.1885	0.8906	8.4229	1.7090	-34.3628	0.4175	8.2837	82.9852	43.3000	178	16	-109	100597	0.61 
161.871	-0.0239	-0.0283	1.0112	-11.5967	-8.2397	-9.5825	0.2856	7.5421	81.8262	43.3100	175	20	-112	100597	0.61 
161.949	0.0068	0.2393	1.4873	0.2441	-15.4419	19.2261	0.4669	6.5369	80.3156	43.3100	173	26	-114	100597	0.61 
162.074	-0.5752	-0.0303	1.0337	28.3203	-7.2021	-18.7988	1.2085	6.1414	77.6569	43.2900	166	35	-119	100597	0.61 
162.183	-0.2109	0.0693	0.8975	-27.4048	17.8833	10.1929	0.7745	6.8994	78.6566	43.3000	168	34	-119	100597	0.61 
162.277	-0.1255	-0.1592	1.0317	-20.5078	15.5029	13.4277	-2.1643	8.7067	80.2826	43.3000	169	36	-118	100596	0.61 
162.449	-0.0107	-0.0898	0.9468	1.8311	14.3433	-2.1973	-3.2794	9.1736	80.7825	43.2900	175	42	-110	100596	0.61 
162.512	-0.1177	-0.7075	1.3008	4.0283	5.0049	10.1929	-2.5818	8.0859	84.0399	43.2900	177	38	-111	100596	0.61 
162.590	-0.6914	-0.0649	1.1943	-36.0718	-12.9395	63.7207	-2.4225	5.5206	86.4514	43.2900	174	30	-115	100596	0.61 
162.668	-0.1533	-0.3247	0.9043	20.9961	4.0283	3.2349	-3.3893	6.1853	87.5281	43.2900	171	27	-121	100596	0.61 
162.808	-0.0645	0.2896	0.8242	35.8887	6.4697	-52.4902	-0.1483	7.1466	82.8534	43.3000	170	32	-117	100596	0.61 
162.887	-0.0122	0.1826	0.9004	-0.9766	6.9580	-25.1465	1.3074	7.5037	78.3270	43.2800	170	42	-119	100596	0.61 
163.058	-0.0166	0.1079	1.0229	-9.3994	-4.5776	-27.7710	0.4340	7.2125	75.7892	43.2900	172	48	-120	100596	0.61 
163.121	0.1318	-0.2407	1.2529	-3.7231	-29.7241	-23.7427	0.2582	5.8392	74.6796	43.2900	166	52	-123	100596	0.61 
163.199	-0.2769	0.1895	1.1289	3.6011	-12.8784	44.5557	1.6699	6.1633	72.2241	43.2900	163	57	-128	100596	0.61 
163.371	-0.2354	-0.1094	0.8350	-41.6870	0.7935	56.9458	-0.3900	6.7072	75.3992	43.3000	167	58	-127	100596	0.61 
163.496	-0.1240	-0.1670	0.8774	-4.1504	-0.9766	34.7290	-3.0981	7.3389	80.2222	43.2700	177	52	-127	100596	0.61 
163.512	-0.0552	0.0161	0.9756	18.1885	-3.5400	26.9775	-2.0984	7.4377	82.7271	43.2800	181	41	-120	100595	0.61 
163.621	-0.1152	-0.4683	1.1909	13.2446	-10.7422	11.2915	-0.7031	5.8282	86.5503	43.2900	183	34	-126	100595	0.61 
163.699	-0.6396	-0.3926	1.0889	-45.5933	-27.2827	72.7539	-0.6866	4.3231	91.2799	43.2900	184	27	-134	100595	0.61 
163.871	-0.1743	-0.1079	0.8906	15.2588	-5.3711	-14.7705	-1.2140	4.9493	93.1531	43.2900	180	18	-141	100595	0.61 
163.965	-0.2251	0.1865	0.9585	15.4419	-0.3662	-37.8418	0.6921	5.8008	89.3298	43.2700	182	15	-137	100594	0.61 
164.090	-0.0605	0.1313	0.8960	-3.2959	-2.4414	-43.5791	1.1536	6.1304	85.2429	43.2800	180	27	-136	100595	0.61 
164.168	-0.6104	-0.1440	1.7935	-14.1602	37.7197	-30.7617	-0.3131	6.8170	80.1892	43.2900	180	35	-134	100594	0.61 
164.246	-0.1958	0.3813	1.0068	8.4229	8.6060	-18.9209	-0.1263	6.7621	78.1952	43.2800	176	44	-137	100594	0.61 
164.324	-0.2451	-0.1465	1.1328	-16.0522	8.4229	31.1890	-0.1428	7.1466	80.5188	43.2700	177	41	-133	100594	0.61 
164.434	-0.1714	-0.1025	1.0176	-0.4883	2.6245	23.9868	-0.9888	7.8662	82.9413	43.2800	183	41	-133	100594	0.61 
164.528	-0.1250	-0.0259	1.0391	-0.6714	-0.6714	6.5308	-0.8459	7.9871	84.0399	43.2700	185	34	-133	100594	0.61 
164.637	-0.1382	-0.0425	1.0454	-1.4038	3.2349	2.7466	-0.9778	8.0310	84.4409	43.2800	186	32	-128	100594	0.61 
164.731	-0.1074	-0.0410	1.0352	-0.7324	2.2583	-7.4463	-1.1975	8.1079	83.9191	43.2600	186	33	-131	100594	0.61 
164.824	-0.1147	-0.0225	1.0391	-0.9155	3.9063	-7.6904	-1.3678	8.2727	82.8864	43.2800	184	33	-130	100594	0.61 
164.934	-0.1299	0.0024	1.0342	-1.7700	5.8594	-2.8687	-1.5381	8.5858	82.1228	43.3000	186	39	-126	100594	0.61 
165.043	-0.1460	-0.0200	1.0430	-2.8076	6.5918	5.3101	-1.6974	9.1406	82.0020	43.2800	187	40	-125	100594	0.61 
165.137	-0.1582	-0.0234	1.0327	-2.1973	5.6152	7.3853	-1.7908	9.6021	82.3535	43.2800	188	37	-123	100594	0.61 
165.277	-0.1626	-0.0356	1.0264	-0.8545	1.8921	7.0801	-1.8292	10.0140	82.8809	43.2800	190	34	-121	100594	0.61 
165.496	-0.1626	-0.0283	1.0356	-0.6714	1.8921	6.5308	-1.7688	10.0964	83.4631	43.2900	190	31	-122	100594	0.61 
165.559	-0.1611	-0.0356	1.0254	-1.1597	-0.0610	3.3569	-1.7853	10.1239	83.8861	43.2600	192	32	-123	100595	0.61 
165.668	-0.1670	-0.0405	1.0347	-1.7700	-0.9155	0.2441	-1.9391	10.0305	83.8806	43.2700	193	35	-122	100595	0.61 
165.715	-0.1768	-0.0278	1.0200	-0.9155	-1.2817	-4.2725	-2.1039	9.8932	83.4357	43.2800	191	32	-118	100595	0.61 
165.746	-0.1689	-0.0420	1.0278	-2.9297	1.6479	0.1221	-2.2522	9.7998	82.8754	43.2900	194	34	-120	100595	0.61 
165.856	-0.1694	-0.0444	1.0190	-1.5259	1.3428	-4.6387	-2.5323	9.8547	82.4524	43.2900	192	37	-120	100595	0.61 
165.950	-0.1714	-0.0293	1.0195	-0.7935	0.6714	-2.9297	-2.6752	9.9261	81.7822	43.2900	193	38	-124	100595	0.61 
166.106	-0.1641	-0.0405	1.0332	-0.1831	-1.3428	-0.1831	-2.7081	9.8932	81.4526	43.3000	192	39	-124	100595	0.61 
166.199	-0.1611	-0.0396	1.0220	0.1221	-1.3428	-0.5493	-2.7026	9.7284	81.3263	43.3300	194	35	-121	100595	0.61 
166.278	-0.1440	-0.0430	1.0288	-0.1221	0.1831	0.6714	-2.6697	9.5471	81.2659	43.3100	193	37	-123	100595	0.61 
166.387