StartTime: 2017-07-14 14:03:03.436
Time(s)	ax(g)	ay(g)	az(g)	wx(deg/s)	wy(deg/s)	wz(deg/s)	AngleX(deg)	AngleY(deg)	AngleZ(deg)	T(°)	hx	hy	hz	Pressure(Pa)	Altitude(m) 
432.491	-0.2568	-0.0679	1.0000	-0.6104	1.3428	1.2817	-4.2847	13.8428	87.3303	44.8500	218	20	-73	100569	0.63 
432.569	-0.2427	-0.0679	1.0000	-0.4272	1.0986	1.2207	-4.3011	13.9746	87.3688	44.8400	218	18	-71	100569	0.63 
432.663	-0.2642	-0.0728	1.0078	-0.4272	0.7935	0.7935	-4.3066	14.1229	87.4072	44.8500	218	18	-72	100569	0.63 
432.741	-0.2856	-0.0820	0.9800	-0.3052	3.1128	-0.0610	-4.3231	14.3207	87.3743	44.8300	221	17	-69	100569	0.63 
432.866	-0.3042	-0.1016	0.9893	1.9531	9.7046	-4.0283	-4.4275	14.9744	87.0831	44.8600	219	17	-69	100569	0.63 
432.960	-0.2583	-0.0898	0.9565	6.8359	26.8555	-11.3525	-4.3066	16.6278	86.0889	44.8500	222	22	-65	100569	0.63 
433.116	-0.3296	-0.1201	0.9380	12.2681	31.7993	-9.7656	-3.8617	19.5502	84.9463	44.8600	224	20	-58	100570	0.63 
433.163	-0.3540	-0.0156	0.7983	5.0049	39.4287	13.1836	-2.7356	23.0548	84.7046	44.8600	230	20	-47	100570	0.63 
433.257	-0.2568	0.0474	0.4780	-5.3101	30.8228	11.2915	-2.3181	26.6968	85.6549	44.8800	237	15	-35	100570	0.63 
433.381	-0.3149	0.2656	0.3560	7.5073	28.8086	-3.7231	-2.7356	30.7672	83.8971	44.8700	241	19	-21	100570	0.63 
433.460	-0.2983	0.0313	0.6499	28.0151	-4.9438	12.2070	0.0934	32.1130	85.4187	44.8500	244	13	-8	100570	0.63 
433.585	-0.3945	0.2549	0.8086	24.1089	12.5732	-6.0425	3.2080	32.0306	84.0344	44.8600	241	15	-4	100571	0.63 
433.710	-0.6226	0.1128	1.2358	8.9111	0.3052	5.7983	5.6635	34.9530	84.8639	44.8600	242	17	1	100571	0.63 
433.788	-1.2822	0.2324	1.8843	-9.7046	1.5259	7.2632	5.8557	34.0961	85.3143	44.8500	240	17	6	100573	0.63 
433.913	-0.8452	0.2051	1.5210	-33.6304	-24.9634	-3.7231	3.6255	32.5964	85.6000	44.8200	242	15	3	100574	0.63 
434.069	-0.6406	-0.0015	1.5596	-23.1934	-42.1753	-12.2070	0.4724	28.2788	85.6000	44.7900	239	15	-9	100574	0.63 
434.132	-0.6211	-0.1240	0.6108	-16.0522	-44.3726	75.5005	0.6097	23.3844	87.4841	44.7400	234	18	-26	100575	0.63 
434.210	-0.1123	0.1963	-0.7988	16.5405	-82.1533	-36.9263	-1.1206	15.0787	86.1493	44.7300	230	14	-57	100574	0.63 
434.335	-0.0713	-0.0166	-0.0122	-7.4463	-31.2500	20.6909	1.4392	13.4473	86.9183	44.6700	223	15	-74	100574	0.63 
434.428	-0.1084	-0.0107	-0.0513	-8.7891	-1.4648	-7.4463	-0.4504	9.8438	85.8142	44.6500	215	13	-82	100573	0.63 
434.522	-0.2368	-0.0410	0.0522	-9.0332	1.5259	-0.2441	-5.9326	10.7941	89.1211	44.6400	216	13	-82	100572	0.63 
434.678	-1.5000	-0.1748	2.0996	17.0898	-174.1943	29.4189	-8.1464	20.3247	82.3645	44.6400	226	26	-50	100572	0.63 
434.772	-0.7168	-0.1929	0.8325	-6.9580	7.0801	10.9863	-6.6248	17.4957	86.0010	44.6300	220	22	-54	100572	0.63 
434.835	-0.3730	-0.0942	0.8677	-26.9775	45.5322	-2.4414	-7.0313	18.3032	86.9733	44.6100	226	21	-54	100571	0.63 
434.929	0.1143	0.0034	0.5703	-2.0142	-38.2690	14.5264	-8.1683	17.7319	86.9952	44.6100	228	22	-48	100571	0.63 
435.014	-0.3081	-0.1914	0.9487	5.7373	-34.1187	5.6763	-8.1683	17.7100	87.5226	44.6000	228	19	-49	100571	0.63 
435.154	-0.2617	-0.0391	0.9980	10.3149	-18.0054	-10.6201	-7.6410	15.9741	85.9900	44.6100	225	22	-54	100570	0.63 
435.217	-0.3530	0.0181	0.9854	1.8921	-17.7612	4.5166	-6.6357	14.2877	86.0724	44.6200	219	28	-62	100570	0.63 
435.342	-0.3496	-0.1167	1.0845	1.8311	-6.1646	8.3618	-6.7511	13.1781	87.4127	44.6200	219	25	-63	100570	0.63 
435.467	-0.2729	-0.0942	1.0049	-0.4272	2.4414	10.7422	-6.3336	12.6892	87.9071	44.6300	218	22	-69	100570	0.63 
435.530	-0.2432	-0.0557	0.9980	-2.8687	5.2490	11.5356	-5.8887	13.0078	88.7256	44.6400	220	19	-69	100570	0.63 
435.701	-0.2573	-0.0791	0.9834	0.1831	-0.5493	0.1221	-5.8228	13.3594	89.1760	44.6400	220	17	-65	100570	0.63 
435.779	-0.2476	-0.0313	0.9678	1.4038	0.9155	-3.1128	-5.5811	13.3813	88.7750	44.6400	221	18	-68	100569	0.63 
435.858	-0.2725	-0.0288	0.9888	-1.4038	4.0894	0.1831	-5.4877	13.9417	88.4399	44.6400	218	15	-65	100570	0.63 
435.951	-0.2959	-0.0859	0.9878	-2.1362	14.7705	3.2959	-5.5920	15.1721	88.5333	44.6600	219	16	-66	100570	0.63 
436.030	-0.2695	-0.0864	0.9209	0.0000	19.7144	-2.8076	-5.6854	16.9409	88.4290	44.6400	221	16	-58	100570	0.63 
436.155	-0.4131	-0.0186	0.7700	6.3477	46.3257	-12.5122	-5.7513	20.5939	87.0996	44.6400	228	15	-49	100570	0.63 
436.264	-0.3213	-0.1084	0.5991	1.5259	38.7573	8.6670	-5.4437	24.9664	87.3358	44.6400	230	15	-37	100571	0.63 
436.343	-0.3540	0.0435	0.5825	4.9438	60.3027	10.4370	-4.3231	28.4106	87.3193	44.6500	238	13	-22	100571	0.63 
436.514	-0.2476	0.1577	0.6309	18.7378	21.6675	9.8877	-2.4445	31.4374	87.4731	44.6500	240	13	-7	100571	0.63 
436.561	-0.4126	0.1338	0.8096	36.9263	45.7764	-21.3623	0.1923	31.7065	87.3907	44.6500	245	8	-3	100572	0.63 
436.686	-0.9766	0.3447	1.5493	20.8740	31.1890	2.9907	2.9114	35.8484	86.7755	44.6600	245	10	5	100572	0.63 
436.780	-1.5386	0.2656	2.0381	14.7095	-10.6812	-20.0195	3.9001	36.3373	85.3583	44.6500	246	17	11	100573	0.63 
436.920	-0.9634	0.0249	1.7705	-19.6533	-56.8848	-14.5264	3.0267	33.2446	83.6005	44.6400	238	22	8	100574	0.63 
436.998	-0.6958	0.0435	1.6528	-15.5029	-52.5513	-8.5449	0.3461	26.1475	82.0020	44.6100	237	23	-15	100574	0.63 
437.123	-0.6182	0.1914	0.5522	-2.9297	-67.6270	-12.1460	0.2307	21.1322	83.8971	44.5900	233	25	-35	100574	0.63 
437.217	-0.4180	-0.0503	-0.3003	-7.8125	1.2817	23.9258	-1.7963	12.1124	85.3528	44.5500	220	24	-67	100573	0.63 
437.295	0.1958	0.1235	-0.0542	-6.0425	-23.4375	0.3662	-3.5321	8.1848	87.2260	44.5100	218	20	-84	100573	0.63 
437.374	-0.1299	-0.0176	-0.0693	-4.3945	-4.5776	-10.8032	-5.4163	6.0260	88.4839	44.5000	213	22	-96	100572	0.63 
437.498	-0.0029	-0.1504	0.3574	-34.4238	156.2500	-18.0664	-8.3331	9.3384	89.1156	44.5100	215	24	-88	100572	0.63 
437.592	0.1216	0.1211	1.7671	67.6270	-154.8462	38.6963	-10.4645	16.3257	84.7485	44.4900	228	33	-50	100572	0.63 
437.717	-0.8315	-0.4932	0.7441	-7.1411	1.7090	14.4043	-8.6627	15.8972	90.2032	44.4600	227	24	-55	100572	0.63 
437.811	-0.4136	-0.0298	1.1987	-24.7803	33.5083	11.2305	-9.6460	16.8201	91.4447	44.4400	231	16	-56	100572	0.63 
437.935	-0.2573	0.0596	0.9106	-7.3242	-1.5869	12.8174	-10.1019	15.8807	90.7910	44.4300	233	19	-55	100572	0.63 
437.998	-0.3062	-0.1143	0.9263	-0.3662	-10.5591	3.9063	-10.0745	15.8313	91.9226	44.4500	232	21	-52	100572	0.63 
438.123	-0.3159	-0.0938	1.0444	3.3569	-1.8921	-5.0659	-10.0195	15.3864	91.4612	44.4500	231	20	-54	100571	0.63 
438.217	-0.3345	-0.0562	1.0137	3.6011	0.6104	-11.2915	-9.7284	15.2435	90.1373	44.4500	230	18	-55	100572	0.63 
438.327	-0.2954	-0.0981	1.0493	-1.8311	6.6528	-3.8452	-9.4977	15.5182	89.1705	44.4600	229	22	-57	100571	0.63 
438.420	-0.4102	-0.0884	0.9663	-5.7983	6.9580	0.3052	-9.5032	16.0236	88.7146	44.4700	230	20	-53	100571	0.63 
438.537	-0.3325	-0.0918	0.9565	0.8545	-1.2207	0.9155	-9.3878	16.3257	88.8959	44.4700	235	23	-52	100571	0.63 
438.631	-0.3706	-0.0942	0.9800	1.9531	-0.1221	0.0000	-8.9978	16.3806	88.5938	44.4900	228	24	-51	100571	0.63 
438.740	-0.3330	-0.0854	0.9849	0.4883	-1.7700	-0.4883	-8.6737	16.4301	88.4180	44.4900	230	25	-51	100571	0.63 
438.818	-0.3281	-0.1011	0.9683	-0.1221	-0.7935	0.2441	-8.4485	16.3696	88.2587	44.4700	232	23	-55	100571	0.63 
438.959	-0.3677	-0.1641	0.9219	-1.5259	11.1694	-2.6855	-8.4485	17.0123	88.0499	44.5000	232	22	-56	100571	0.63 
439.037	-0.3794	-0.0786	0.9180	3.2349	18.8599	-3.1128	-8.4430	18.4735	86.8085	44.5200	234	28	-49	100570	0.63 
439.115	-0.3398	-0.0723	0.8291	4.9438	36.1328	-13.0615	-8.3112	21.0938	85.3583	44.5200	234	26	-43	100570	0.63 
439.255	-0.3237	0.0747	0.5073	-4.0283	25.6348	-2.5024	-8.3386	23.6041	83.5126	44.5000	235	33	-34	100570	0.63 
439.349	-0.4180	-0.2397	0.5381	8.6060	42.7856	-4.4556	-8.5309	28.3392	83.1500	44.5300	235	30	-19	100570	0.63 
439.443	-0.3911	0.1592	0.7686	34.2407	35.7666	-6.3477	-7.4872	31.7560	79.6014	44.5400	241	37	-7	100571	0.63 
439.552	-0.5410	0.0010	0.8799	30.2124	21.1182	-12.1460	-3.8397	33.2941	79.4257	44.5300	244	34	-3	100571	0.63 
439.647	-1.0439	-0.0298	1.7671	16.2964	-24.2310	-21.8506	-2.2906	34.4916	77.5195	44.5300	238	42	5	100572	0.63 
439.771	-1.3281	0.1470	1.9224	4.9438	-6.1646	-1.2817	-1.3348	32.1899	76.6351	44.5300	234	47	-3	100573	0.63 
439.850	-0.7642	0.0459	1.5649	-23.5596	-28.1982	2.9297	-2.3621	31.0144	76.6626	44.5300	236	44	-4	100573	0.63 
439.975	-0.7212	0.0225	1.7925	-15.9912	-23.7427	-1.0986	-4.2297	27.9218	77.0801	44.5100	232	50	-9	100574	0.63 
440.069	-0.5742	0.0347	0.9395	-8.6670	-76.5991	21.3013	-2.9498	23.9008	82.0459	44.4800	235	46	-22	100574	0.63 
440.178	-0.1909	0.2476	-0.8335	5.3101	-66.6504	-8.7280	-4.2462	12.6123	85.6549	44.4100	226	32	-55	100573	0.63 
440.272	0.0444	0.0005	-0.0591	-8.7891	-35.0342	38.0249	-4.0485	11.8103	89.1541	44.3900	219	28	-77	100572	0.63 
440.397	-0.0874	-0.1240	-0.0425	-4.8218	2.3193	9.7656	-6.1853	8.1354	92.1643	44.3700	217	15	-81	100571	0.63 
440.491	-0.1543	0.0430	-0.1123	-14.0991	23.1934	28.2593	-6.5424	9.3713	93.3179	44.3400	217	12	-84	100570	0.63 
440.600	-1.7202	-0.8462	2.3633	34.4849	-130.5542	17.3950	-11.5137	22.1814	87.1820	44.3500	230	18	-42	100570	0.63 
440.694	-0.7988	-0.3667	0.5449	0.0610	-14.3433	-8.8501	-8.2947	17.2375	89.4562	44.3100	229	17	-41	100570	0.63 
440.803	-0.8872	-0.1543	1.0532	-25.3296	157.7759	-48.2178	-11.5411	18.0450	87.9675	44.3200	229	19	-48	100570	0.63 
440.882	-0.0659	-0.2383	0.7632	-8.3008	22.5220	-5.6152	-12.1564	18.2153	88.8354	44.3000	236	24	-37	100569	0.63 
440.991	-0.3057	-0.0190	0.8501	-4.2114	-14.8926	14.5874	-11.9916	18.1000	88.4399	44.3100	232	21	-32	100569	0.63 
441.100	-0.3257	-0.0952	0.8833	-1.8311	-16.4185	6.7139	-11.5796	17.0673	89.3903	44.3100	230	19	-39	100569	0.63 
441.209	-0.3457	-0.0801	0.9722	4.0894	-16.0522	-5.4932	-10.9644	16.1774	89.3298	44.3100	232	20	-39	100569	0.63 
441.303	-0.3667	-0.0703	0.9639	6.8970	-10.0708	-19.6533	-10.4590	14.8041	87.8192	44.3200	231	23	-47	100568	0.63 
441.397	-0.3164	-0.1118	0.9727	2.1362	-5.9814	-12.3901	-10.0415	13.9197	86.1108	44.3100	225	29	-54	100569	0.63 
441.506	-0.2920	-0.1025	0.9507	1.5869	-2.1362	-9.3994	-9.7943	13.6230	84.9957	44.3300	222	33	-56	100568	0.63 
441.647	-0.3018	-0.0459	1.0122	0.3662	0.4272	-7.0801	-9.5197	13.6670	83.7378	44.3200	222	33	-56	100568	0.63 
441.710	-0.3311	-0.0967	0.9834	-0.9766	-0.6714	-3.4790	-9.3878	13.8593	83.3313	44.3400	216	36	-57	100568	0.63 
441.804	-0.3135	-0.0845	0.9971	-1.5259	-0.7935	-1.7700	-9.2999	13.8922	82.9303	44.3400	217	37	-57	100568	0.63 
441.913	-0.3213	-0.0811	0.9907	-1.1597	-2.0752	1.8921	-9.1571	13.9417	82.7875	44.3500	216	37	-59	100568	0.63