StartTime: 2017-07-14 14:15:41.614
Time(s)	ax(g)	ay(g)	az(g)	wx(deg/s)	wy(deg/s)	wz(deg/s)	AngleX(deg)	AngleY(deg)	AngleZ(deg)	T(°)	hx	hy	hz	Pressure(Pa)	Altitude(m) 
517.728	-0.1523	0.0244	1.0220	-0.6104	1.0986	1.7700	0.9229	8.6023	98.7616	44.5300	270	-34	-91	100553	0.64 
517.807	-0.1636	0.0156	1.0317	-0.1221	-0.1221	1.7090	0.9338	8.6188	98.9264	44.5300	270	-37	-91	100553	0.64 
517.947	-0.1660	0.0234	1.0283	-0.1831	-0.6104	0.5493	0.9448	8.6188	98.9154	44.5500	271	-34	-92	100553	0.64 
518.025	-0.1533	0.0249	1.0186	-0.0610	-0.1221	0.1831	0.9613	8.5529	98.8385	44.5300	271	-37	-94	100552	0.64 
518.150	-0.1509	0.0225	1.0127	0.6714	0.9155	-0.8545	1.0107	8.5748	98.7561	44.5500	271	-34	-90	100553	0.64 
518.244	-0.1582	0.0303	0.9980	0.6714	4.3335	1.7090	1.1261	8.7671	98.7836	44.5400	270	-37	-92	100553	0.64 
518.353	-0.2671	0.0840	0.9517	1.0376	20.2026	0.1221	1.3348	10.0854	98.8770	44.5500	270	-40	-89	100553	0.64 
518.431	-0.1069	-0.0547	0.4961	-1.2817	39.5508	-2.0752	1.2195	13.1561	99.0582	44.5500	275	-37	-81	100553	0.64 
518.556	-0.2388	0.1777	0.4800	22.7661	30.5176	5.4321	2.6422	18.3032	99.4757	44.5400	284	-39	-57	100553	0.64 
518.665	-0.2124	-0.0488	0.4717	3.1738	62.5000	2.8687	4.5209	24.4720	101.7938	44.5600	292	-47	-33	100554	0.64 
518.759	-0.2886	-0.0146	0.6816	9.7656	59.9976	-2.1973	5.2075	31.2122	103.0573	44.5300	297	-54	7	100554	0.64 
518.853	-0.5015	0.1343	0.8003	10.9863	35.9497	-17.8223	5.4108	37.3590	102.1344	44.5400	300	-54	36	100555	0.64 
518.978	-0.5493	0.0107	0.7490	-0.3662	3.0518	-7.7515	4.4879	39.6002	99.5581	44.5500	302	-45	56	100556	0.64 
519.057	-0.8784	0.1001	0.9370	-10.4980	16.2964	-14.9536	3.1091	40.3308	97.7179	44.5300	301	-39	55	100556	0.64 
519.181	-0.9980	0.0703	1.1030	-3.8452	8.2397	23.4985	3.2849	40.7043	99.5087	44.5300	294	-43	61	100556	0.64 
519.322	-0.7383	0.0771	0.9287	-10.1318	-19.7144	-0.8545	3.1805	40.3363	100.7391	44.5200	287	-51	66	100558	0.64 
519.385	-0.7979	0.0757	0.7861	-0.1221	-15.3809	2.8076	3.1860	39.0179	101.3324	44.5100	285	-54	66	100558	0.64 
519.541	-0.4897	-0.0137	0.7686	3.6621	13.7939	-3.6621	3.5541	39.3860	101.6455	44.4900	288	-54	63	100558	0.64 
519.619	-0.6240	0.0518	0.7539	6.4087	3.2349	2.6855	3.8452	40.1660	101.4148	44.4900	288	-55	63	100559	0.64 
519.759	-0.6543	0.0762	0.7153	7.3242	0.2441	5.7373	4.8175	40.2539	101.7993	44.5000	286	-54	66	100559	0.64 
519.837	-0.7388	0.1309	0.8340	11.3525	-5.0659	15.8691	6.9269	40.3857	103.6066	44.5000	286	-59	70	100560	0.64 
519.932	-0.7573	0.0854	0.8242	-2.4414	4.5166	1.6479	7.9047	39.8969	104.5734	44.5200	285	-59	70	100560	0.64 
520.041	-0.8398	0.1377	0.9063	3.1128	25.8789	2.6855	8.3936	41.7535	105.3809	44.5000	287	-62	72	100560	0.64 
520.166	-1.0757	0.2344	1.3745	1.6479	51.0864	17.3950	9.7009	45.0220	106.9299	44.5000	291	-60	83	100560	0.64 
520.244	-1.1509	0.2754	1.3013	10.2539	17.3950	-2.5024	10.2942	48.6255	107.3749	44.5000	292	-62	99	100560	0.64 
520.384	-1.0444	0.0161	1.1646	-0.2441	-16.2354	-14.4653	8.5419	47.8455	104.5294	44.4600	301	-53	108	100560	0.64 
520.478	-0.7300	0.0635	0.5088	10.7422	-278.7476	-25.6958	5.3503	35.9967	100.4919	44.4500	310	-44	78	100560	0.64 
520.572	-0.2993	0.3276	0.0991	-5.7373	111.0229	-23.1934	9.2120	17.2650	96.3831	44.4100	299	-27	-34	100559	0.64 
520.697	0.0054	0.0654	-0.6489	-6.8970	-37.4756	-36.0107	7.4268	10.8875	93.8507	44.3800	289	-18	-77	100558	0.64 
520.775	0.0381	-0.0635	-0.1055	-20.6909	37.5977	14.6484	7.3334	13.7164	94.0210	44.3700	287	-14	-83	100557	0.64 
520.885	-0.2954	0.0503	0.0073	-12.0850	78.2471	21.7285	7.0642	20.0720	94.7626	44.3600	300	-19	-59	100556	0.64 
520.994	-0.9238	-0.0757	0.4478	2.9297	139.0991	11.5967	13.4967	29.7290	99.0967	44.3700	318	-35	-8	100555	0.64 
521.119	-0.5420	0.2295	1.0396	35.3394	-280.5176	-42.1143	15.3424	43.6926	101.0138	44.3300	313	-36	82	100555	0.64 
521.213	-1.0835	0.0000	1.4595	2.9297	-84.8389	-0.7324	13.3594	42.4457	96.7346	44.2800	313	-22	84	100555	0.64 
521.322	-0.2837	0.0439	0.2373	-11.7188	-85.6323	32.2266	13.1177	31.5308	96.4435	44.2500	315	-23	47	100555	0.64 
521.416	-0.6602	-0.0327	0.6362	-3.6011	-49.7437	16.9678	12.0190	26.4935	98.1134	44.2300	315	-35	11	100555	0.64 
521.510	-0.3560	-0.1030	0.7422	-2.6855	-31.3721	3.7231	11.5082	22.9230	98.9044	44.2600	309	-42	-7	100555	0.64 
521.634	-0.5327	0.0269	1.0005	2.3193	-7.8735	-4.5776	10.9534	23.2196	98.7891	44.2400	305	-45	-18	100554	0.64 
521.713	-0.4404	0.0776	0.9150	1.8921	8.0566	-3.9673	10.4535	22.6263	98.2617	44.2600	309	-41	-18	100554	0.64 
521.838	-0.3618	0.0371	0.9102	0.7935	-4.8828	-2.5024	10.0140	22.9010	98.3331	44.2800	308	-41	-20	100554	0.64 
521.916	-0.4199	0.0156	0.9590	-2.1362	-3.1738	8.4839	9.6075	22.7307	98.6682	44.2600	303	-40	-18	100554	0.64 
522.041	-0.4365	0.0264	0.9434	-1.8311	-2.9907	4.1504	9.1406	22.5275	99.0582	44.2700	302	-41	-20	100554	0.64 
522.135	-0.3643	0.0332	0.9272	0.0000	-1.5869	-0.8545	8.7781	22.2748	99.3329	44.2700	301	-44	-24	100554	0.64 
522.245	-0.4248	0.0293	0.9424	-2.4414	-3.4790	1.4648	8.2562	22.3297	99.2834	44.2700	304	-42	-23	100554	0.64 
522.338	-0.4141	0.0488	0.9302	-3.2349	-2.0752	4.3945	7.8003	22.0935	99.5856	44.2600	302	-45	-25	100554	0.64 
522.463	-0.4146	0.0278	0.9697	-0.1831	6.1646	0.7935	7.3499	22.0660	99.9042	44.2500	300	-43	-26	100554	0.64 
522.541	-0.4268	0.0352	0.9536	1.6479	6.2256	-1.4038	7.1796	22.4341	99.9591	44.2600	304	-42	-22	100554	0.64 
522.666	-0.4419	0.0391	0.9351	-0.0610	3.7842	-0.5493	6.9269	23.0273	99.8053	44.2800	299	-43	-22	100554	0.64 
522.745	-0.4683	0.0503	0.8545	-0.7935	14.6484	2.2583	6.7566	24.0381	100.0140	44.2900	303	-42	-23	100554	0.64 
522.870	-0.4819	0.0630	0.6353	-11.6577	35.4614	5.4932	6.5698	27.0923	100.8435	44.2900	309	-44	-7	100554	0.64 
522.963	-0.2017	-0.0161	0.3667	-1.5869	52.3682	-39.6729	4.1364	31.5747	99.6295	44.2900	308	-44	5	100554	0.64 
523.088	-0.4165	-0.1519	0.6255	-1.8921	76.3550	1.2817	3.9331	37.1613	100.5304	44.3000	313	-44	31	100554	0.64 
523.197	-0.5454	-0.0557	0.7847	3.8452	55.4810	0.3052	4.5538	42.0996	101.2830	44.3000	312	-43	59	100555	0.64 
523.307	-1.0630	-0.0532	0.9268	7.1411	31.7383	-34.3628	3.7573	45.8185	100.1733	44.3200	306	-43	76	100555	0.64 
523.400	-0.9282	0.1455	0.8940	10.4370	-7.6904	4.2114	3.9716	47.7246	98.9374	44.3100	302	-40	88	100556	0.64 
523.525	-1.0679	0.0298	0.8330	-4.5776	-20.8130	15.5640	3.9935	45.8899	98.9044	44.3100	300	-39	88	100557	0.64 
523.619	-1.1489	0.0313	0.9561	-15.5029	19.1650	3.8452	-0.5933	46.2634	95.7404	44.3200	298	-35	82	100557	0.64 
523.729	-1.0239	-0.0083	0.9023	2.5635	-19.8364	15.3809	-1.2360	45.3516	95.5481	44.2900	292	-34	83	100558	0.64 
523.838	-0.8716	-0.0649	0.7905	-5.1880	13.0005	15.8691	-0.9723	45.2417	96.0864	44.2900	293	-33	80	100559	0.64 
523.963	-0.6758	-0.0444	0.6558	4.2114	-2.9297	5.2490	-0.6152	45.2637	96.8390	44.2800	293	-37	80	100559	0.64 
524.057	-0.7554	-0.0908	0.7266	-2.1362	-19.2871	16.2964	1.1371	45.0220	99.0692	44.2800	289	-43	80	100559	0.64 
524.135	-0.7749	-0.0181	0.7139	-5.0049	-10.1929	12.2070	1.6095	43.5938	100.3601	44.2800	293	-47	75	100560	0.64 
524.260	-0.7393	-0.0273	0.7334	-4.8828	-5.6763	6.8359	1.7633	43.0389	101.5027	44.2700	291	-49	71	100560	0.64 
524.369	-0.7017	-0.0205	0.6689	-4.0894	14.6484	6.2256	1.9885	43.3630	102.5903	44.2900	293	-54	71	100561	0.64 
524.463	-0.7891	-0.0034	0.8145	-10.0098	3.1128	6.1035	2.1698	45.5768	105.3479	44.3100	291	-59	76	100561	0.64 
524.588	-1.3013	0.0591	1.1626	18.7988	22.2778	-7.2021	2.8564	47.4170	105.7764	44.3000	286	-66	85	100561	0.64 
524.729	-1.0366	-0.2188	1.2915	8.9722	19.1650	-37.6587	3.4113	49.9713	103.8977	44.3100	287	-58	92	100561	0.64 
524.776	-1.5220	-0.0171	1.2021	11.7798	-45.7764	2.1973	0.3571	49.3671	98.8275	44.3000	297	-44	104	100560	0.64 
524.900	-1.6709	-0.3169	1.9932	8.1177	-78.6743	-30.1514	-0.0330	44.5166	97.7454	44.2700	305	-37	96	100560	0.64 
525.010	-0.7881	-0.3101	-3.9551	2.6245	-129.5166	65.8569	3.0157	16.4191	100.4095	44.2600	309	-33	0	100560	0.64 
525.104	0.6362	-0.2100	0.3257	-3.4180	-43.6401	22.2168	0.4944	13.7714	100.3656	44.2300	296	-27	-59	100559	0.64 
525.213	-0.2690	-0.1699	-0.0308	12.6343	0.7324	-15.3198	2.8949	10.4370	100.6183	44.1900	279	-24	-87	100557	0.64 
525.354	0.0054	0.1299	0.0322	1.7700	8.4839	-19.9585	2.4500	10.7831	98.2452	44.1600	280	-19	-89	100556	0.64 
525.479	0.1099	0.0488	-0.0615	17.8833	-34.5459	-16.2964	2.5873	8.3881	96.9489	44.1700	282	-14	-87	100554	0.64 
525.526	0.1353	-0.0835	0.5166	-12.1460	205.8105	-5.1880	6.4105	10.6458	93.9825	44.1700	285	-9	-78	100554	0.64 
525.651	1.1577	0.3130	0.0845	8.7280	-426.9409	62.2559	6.3116	23.0768	94.8944	44.1500	307	-12	4	100554	0.64 
525.729	-0.5259	-0.0981	1.0376	-1.4648	-105.0415	61.6455	3.0267	28.9270	92.5433	44.1000	310	-5	29	100554	0.64 
525.901	-0.4268	-0.1118	0.8188	3.7842	-16.4185	11.2915	3.2520	27.0428	94.1144	44.0900	311	-10	26	100554	0.64 
525.994	-0.5815	-0.0107	0.8462	-5.6152	-22.0337	9.5215	2.8729	24.6478	93.8672	44.0800	313	-10	19	100554	0.64 
526.057	-0.5864	-0.0483	0.8188	-10.3149	-13.4277	3.4180	2.4335	23.1537	94.7955	44.0700	307	-15	3	100554	0.64 
526.135	-0.4487	-0.0552	0.7153	-5.1880	-3.8452	11.0474	1.7413	21.3959	95.4437	44.0700	309	-16	-3	100553	0.64 
526.307	-0.4209	0.0732	0.9243	1.2207	-8.5449	10.8643	1.5216	21.5277	96.1688	44.0800	309	-19	-9	100553	0.64 
526.401	-0.4707	-0.0371	0.9414	2.9297	-3.0518	5.5542	1.2854	21.1377	96.3226	44.0800	306	-24	-11	100553	0.64 
526.510	-0.4551	-0.0596	0.9160	0.1221	-1.8311	6.7139	1.2909	21.0938	96.7731	44.1000	303	-23	-15	100553	0.64 
526.588	-0.3945	-0.0776	0.9014	-0.4883	-3.7231	1.5869	1.0931	21.0553	97.3279	44.1000	304	-23	-14	100553	0.64 
526.713	-0.4746	0.0063	0.9395	-1.4038	-2.8687	4.1504	1.0767	21.1816	97.4542	44.0800	302	-26	-18	100553	0.64 
526.791	-0.5083	-0.0103	0.9028	0.0000	1.7700	11.5356	1.0931	21.4618	98.1134	44.0900	303	-29	-17	100553	0.64 
526.885	-0.4917	0.0068	0.8481	-2.6855	6.1646	8.0566	1.0986	22.1924	98.7012	44.1000	304	-30	-18	100553	0.64 
526.979	-0.2983	-0.0317	0.5825	-9.7046	19.5313	18.7988	1.1755	23.8568	100.2173	44.1100	301	-36	-14	100554	0.64 
527.106	-0.3931	0.0630	0.5562	4.6997	-20.6299	-9.4604	1.6370	25.3619	101.1731	44.1100	303	-41	-3	100553	0.64 
527.185	-0.2778	0.0024	0.5264	1.5259	18.4937	-0.1221	2.5873	26.7407	102.2552	44.1200	303	-46	0	100554	0.64 
527.309	-0.3057	-0.0728	0.5820	1.0986	34.4238	-8.8501	2.9883	31.4758	103.3649	44.1200	304	-49	16	100555	0.64 
527.388	-0.4492	0.0156	0.7344	0.8545	51.9409	1.8311	3.3563	36.4911	103.7769	44.1200	301	-54	42	100555	0.64 
527.512	-0.7217	-0.1348	0.8711	0.0000	32.1045	32.7148	5.5371	37.8699	106.4026	44.1300	298	-54	58	100556	0.64 
527.622	-0.7876	-0.0820	0.8120	-23.6816	19.7754	8.1787	4.2242	38.7213	105.6830	44.1400	294	-59	65	100557	0.64 
527.747	-1.0093	-0.0342	1.0000	-20.5688	-1.6479	7.8735	2.8564	39.1278	107.2266	44.1500	288	-63	64	100557	0.64 
527.841	-0.8447	0.0352	0.9268	-12.2070	-2.8076	-2.2583	1.5985	38.5895	107.5507	44.1400	284	-69	60	100558	0.64 
527.950	-0.8105	0.0195	0.8442	2.4414	-1.6479	-5.7983	0.6317	37.9303	107.0453	44.1500	282	-72	59	100559	0.64 
528.060	-0.7842	-0.0352	0.8901	22.0337	5.1270	-5.9814	1.9446	38.8312	107.3639	44.1500	283	-71	64	100559	0.64 
528.153	-0.6523	0.0156	0.7427	6.9580	1.2817	-4.5776	3.1091	38.9960	106.6608	44.1600	282	-68	63	100559	0.64 
528.278	-0.6338	0.0303	0.7520	-0.5493	-6.1035	-6.5918	2.8510	38.8696	105.8203	44.1700	285	-65	62	100560	0.64 
528.357	-0.7349	0.0044	0.7939	3.7231	4.4556	15.7471	4.0594	39.3805	107.4902	44.1700	280	-69	64	100560	0.64 
528.513	-0.6460	-0.0293	0.7593	1.2207	2.6245	11.5356	4.9493	39.6881	108.5065	44.1800	279	-72	64	100561	0.64 
528.591	-0.6724	0.0977	0.7080	3.6621	1.3428	3.6621	5.4053	39.8254	108.7921	44.1800	280	-73	66	100561	0.64 
528.685	-0.9785	0.0776	0.9282	7.0190	15.5029	1.1597	6.6742	40.5066	110.0995	44.1700	278	-75	72	100561	0.64 
528.794	-0.9985	0.0610	1.3169	17.2729	39.2456	-16.0522	7.6685	44.3848	109.6381	44.1700	278	-79	81	100561	0.64 
528.950	-1.1772	0.2476	1.2881	3.9673	8.3618	-30.5176	6.2842	45.5438	105.5402	44.1800	282	-61	88	100561	0.64 
529.028	-1.3896	0.0166	1.2437	26.1841	-24.7803	-38.9404	3.6365	46.3788	100.1678	44.1800	289	-46	94	100562	0.64 
529.138	-1.7852	-0.2871	1.9795	5.3101	-81.8481	-37.5366	2.9059	42.8247	96.2787	44.1200	300	-31	89	100561	0.64 
529.247	0.6108	0.1509	-4.0273	-19.7144	-261.0474	77.6978	4.3945	14.4745	97.8937	44.1100	305	-25	5	100561	0.64 
529.325	0.5259	-0.5234	-0.3179	-6.5918	-101.3184	45.8984	6.6248	11.5851	99.0857	44.0600	285	-25	-65	100560	0.64 
529.435	-0.2637	0.2383	-0.0024	0.5493	11.9019	27.0996	5.1526	10.0964	96.5479	44.0500	276	-21	-95	100558	0.64 
529.560	0.3271	-0.0293	0.1787	-15.8081	-13.0615	4.2114	3.0267	8.5803	98.0420	44.0300	275	-24	-95	100556	0.64 
529.653	0.0586	-0.0786	-0.0654	-5.5542	4.8218	2.6245	0.5658	6.5479	99.3823	44.0100	270	-34	-93	100555	0.64 
529.763	-1.7700	0.3208	1.3105	9.2163	188.2324	6.7139	-4.1418	13.6230	97.7509	44.0300	283	-39	-84	100554	0.64 
529.872	1.3198	-0.0610	-0.0825	-8.7280	61.4014	-3.7842	-2.5653	25.3125	96.2073	43.9900	302	-36	-16	100554	0.64 
529.966	-0.1885	-0.1401	1.0840	-1.5259	-77.2095	-8.3618	-3.1970	37.2876	95.0812	43.9600	304	-32	57	100554	0.64 
530.075	-0.6553	-0.0815	1.0151	-5.2490	-46.0205	-5.4932	-3.0157	36.8536	94.5703	43.9400	301	-34	61	100555	0.64 
530.185	-0.3926	0.0698	0.4243	1.3428	-5.4932	-3.8452	-2.3566	35.5023	95.3064	43.9300	307	-37	54	100555	0.64 
530.310	-0.5703	-0.0005	0.5957	3.2349	16.7847	-7.3853	-2.3346	36.5460	94.8724	43.9400	309	-34	52	100554	0.64 
530.388	-0.9277	-0.0615	1.0723	1.9531	12.7563	-8.0566	-2.7081	37.8589	93.9496	43.9500	308	-31	58	100554	0.64 
530.513	-0.7456	-0.0073	0.9019	0.3662	-28.3203	-9.3384	-3.0927	36.9910	92.8839	43.9300	309	-24	59	100554	0.64 
530.623	-0.5669	-0.0083	0.7686	-4.7607	-37.9639	-3.2959	-3.5156	34.3103	92.4664	43.9400	309	-20	48	100554	0.64 
530.716	-0.5068	0.0078	0.7607	-2.2583	-30.7007	-1.3428	-3.5541	30.6683	92.7631	43.9400	308	-17	32	100554	0.64 
530.810	-0.4434	0.0054	0.7534	-1.1597	-35.2783	1.2207	-3.4607	27.6965	92.9333	43.9400	308	-16	18	100554	0.64 
530.920	-0.4722	-0.0322	0.8564	1.5259	-16.6626	-1.1597	-3.3948	25.8508	92.9883	43.9600	306	-17	4	100554	0.64 
531.029	-0.4111	-0.0063	0.8198	2.2583	-13.4888	-1.3428	-3.1091	24.6423	92.8729	43.9700	308	-17	-5	100554	0.64 
531.123	-0.4775	-0.0044	0.8750	0.9155	-3.9673	-0.8545	-2.7631	24.2303	92.9114	43.9700	309	-13	-7	100554	0.64 
531.247	-0.4487	-0.0083	0.8896	0.4272	-1.2817	-1.6479	-2.4884	24.1425	92.8674	43.9800	308	-13	-10	100554	0.64 
531.326	-0.4800	0.0244	0.9448	0.1831	1.7700	-2.5635	-2.3730	24.3073	92.6147	43.9900	306	-12	-14	100553	0.64 
531.450	-0.4829	-0.0234	0.9360	2.1362	0.4883	-1.3428	-2.4060	24.4006	92.3785	43.9900	306	-11	-12	100554	0.64 
531.575	-0.4658	-0.0298	0.9224	-1.1597	-5.7373	3.9673	-2.2137	24.4061	92.5323	44.0000	304	-10	-15	100553	0.64 
531.669	-0.4658	-0.0195	0.9189	-1.9531	-8.1787	2.6855	-2.2137	23.9557	92.8070	44.0100	305	-9	-13	100553	0.64 
531.794	-0.4575	-0.0098	0.9189	-3.1738	-12.6953	5.7373	-2.1423	23.1921	93.1586	44.0100	304	-10	-19	100553	0.64 
531.857	-0.4277	-0.0005	0.9463	-0.9155	-9.1553	5.9204	-1.9501	22.4176	93.8232	44.0200	301	-15	-23	100553	0.64 
531.951	-0.3662	-0.0200	0.9370	3.0518	-9.2163	1.4648	-1.6425	21.7255	94.1364	44.0400	300	-16	-24	100553	0.64 
532.060	-0.3916	-0.0215	0.9854	5.0659	-7.5073	-4.6387	-1.3184	21.3464	93.7793	44.0400	299	-15	-28	100553	0.64 
532.216	-0.4072	0.0288	0.9658	5.3711	-15.9302	-4.7607	-0.9338	20.4950	93.0487	44.0400	299	-12	-30	100553	0.64 
532.279	-0.2739	0.0654	0.9082	4.9438	-22.7051	18.3716	0.3625	18.1165	94.1858	44.0400	294	-13	-43	100553	0.64 
532.357