StartTime: 2017-07-11 16:10:50.377
Time(s)	ax(g)	ay(g)	az(g)	wx(deg/s)	wy(deg/s)	wz(deg/s)	AngleX(deg)	AngleY(deg)	AngleZ(deg)	T(°)	hx	hy	hz	Pressure(Pa)	Altitude(m) 
43.843	-1.0225	0.0986	1.8823	0.0000	-0.1221	0.5493	3.6145	28.3008	124.0027	38.2600	140	-156	273	100866	0.38 
43.906	-1.0234	0.1074	1.8726	-0.1831	2.8076	-0.4883	3.6035	28.3887	124.0137	38.2600	144	-153	273	100865	0.38 
44.031	-1.0249	0.1094	1.8745	-0.1221	0.0000	0.4883	3.5925	28.5040	124.0356	38.2600	143	-156	274	100866	0.38 
44.124	-1.0234	0.1040	1.8799	-0.1221	-0.2441	-0.1221	3.5266	28.5315	124.0082	38.2600	143	-156	276	100865	0.38 
44.219	-1.0298	0.1074	1.8779	0.3052	0.6104	0.7935	3.5211	28.5535	124.0192	38.2700	140	-156	276	100865	0.38 
44.328	-1.0039	0.1084	1.8618	0.2441	-0.7324	-1.2817	3.5486	28.4711	124.0466	38.2400	143	-152	275	100865	0.38 
44.437	-1.0181	0.1055	1.8662	0.1221	-2.0752	0.1831	3.4937	28.4161	123.9697	38.2800	141	-157	274	100865	0.38 
44.531	-1.0234	0.0981	1.8755	0.1831	0.1221	0.5493	3.4882	28.3942	124.0137	38.2800	142	-154	271	100865	0.38 
44.656	-1.0195	0.1006	1.8716	0.3052	-0.4272	0.4272	3.5046	28.4106	124.0302	38.2900	142	-154	272	100865	0.38 
44.734	-1.0132	0.1099	1.8682	-0.0610	0.1221	-0.6104	3.4387	28.4436	123.9423	38.2800	146	-160	274	100865	0.38 
44.859	-1.0337	0.1089	1.8853	0.2441	0.1221	0.4883	3.4497	28.5095	123.9972	38.2900	143	-156	274	100865	0.38 
44.938	-1.0176	0.1060	1.8667	0.0000	0.1221	0.6714	3.4937	28.3667	124.0521	38.2900	143	-154	276	100865	0.38 
45.062	-1.0210	0.1128	1.8721	-0.2441	0.0000	-0.1831	3.4937	28.3942	124.0576	38.3100	143	-156	273	100865	0.38 
45.140	-1.0244	0.1064	1.8794	-0.3052	-0.1831	0.0610	3.4387	28.4491	124.0466	38.3000	144	-158	275	100866	0.38 
45.266	-1.0181	0.1035	1.8735	-0.2441	0.1831	-0.3052	3.3838	28.4711	124.0411	38.3200	141	-156	274	100866	0.38 
45.375	-1.0229	0.1060	1.8779	0.0000	0.1831	-0.1221	3.3289	28.4875	124.0082	38.3200	140	-155	272	100866	0.38 
45.484	-1.0171	0.1040	1.8726	0.1221	0.0000	0.0000	3.3234	28.4930	124.0137	38.3000	142	-156	274	100866	0.38 
45.609	-1.0098	0.1084	1.8677	0.3052	-2.8687	0.4883	3.3783	28.4161	124.0576	38.3100	142	-155	274	100867	0.38 
45.672	-1.0303	0.1108	1.8691	0.4883	-2.8687	0.3052	3.4003	28.2294	124.0796	38.3300	142	-156	274	100866	0.38 
45.812	-1.0132	0.1089	1.8848	0.5493	-2.7466	1.2817	3.4167	27.9547	124.1180	38.3300	139	-155	272	100867	0.38 
45.875	-1.0117	0.1045	1.8828	1.2817	-3.1738	3.4790	3.6090	27.6086	124.3817	38.3300	137	-156	270	100866	0.38 
46.047	-0.9946	0.1147	1.8706	1.0376	-2.6245	2.9297	3.9001	27.3395	124.7772	38.3400	138	-156	271	100866	0.38 
46.156	-0.9731	0.1226	1.8745	-1.3428	1.2817	0.0000	3.9056	27.3175	124.9036	38.3500	140	-160	272	100866	0.38 
46.250	-0.9941	0.1094	1.8789	-3.7231	2.1362	-2.0752	3.5706	27.5372	124.7992	38.3500	140	-159	272	100866	0.38 
46.328	-1.0469	0.1138	1.8906	-6.4087	-7.7515	-2.0752	2.8564	27.3230	124.4861	38.3600	139	-157	268	100865	0.38 
46.437	-1.0684	0.0781	1.8979	-5.8594	-31.3721	-1.4648	2.1039	25.4883	124.1949	38.3500	132	-157	265	100865	0.38 
46.547	-0.9614	0.0664	1.8906	-2.0752	-51.0864	2.5024	1.6809	21.6760	124.1675	38.3600	126	-152	253	100865	0.38 
46.640	-0.8550	0.0698	1.8696	-0.3662	-73.4863	3.6011	1.5601	15.8478	124.4641	38.3600	112	-149	239	100865	0.38 
46.735	-0.7188	0.0596	1.8345	0.8545	-90.3320	3.4180	1.6040	8.3551	124.9310	38.3500	87	-151	221	100865	0.38 
46.828	-0.5166	0.0459	1.7354	0.1831	-101.8677	9.5825	1.4886	-0.5603	126.1945	38.3600	57	-146	194	100864	0.38 
46.969	-0.3818	0.0288	1.5552	3.4790	-92.2241	-1.2207	1.3074	-9.1516	128.2983	38.3600	21	-146	176	100865	0.38 
47.094	-0.2700	0.0742	1.4771	9.4604	-95.9473	-4.7607	1.7084	-17.1716	129.8859	38.3600	-12	-149	166	100865	0.38 
47.156	-0.1504	0.1113	1.3052	8.2397	-94.7266	-5.4932	2.2412	-25.1312	131.9403	38.3600	-45	-144	164	100865	0.38 
47.265	0.0884	0.1870	1.1265	5.8594	-103.8208	-9.8877	2.2522	-32.2888	134.6759	38.3500	-82	-145	164	100865	0.38 
47.360	0.2266	0.2915	0.7983	3.5400	-110.2295	14.5264	2.7960	-40.3912	137.7576	38.3600	-113	-146	177	100865	0.38 
47.531	-0.3032	0.0928	0.9639	0.4883	16.1743	7.0190	1.2195	-40.6769	145.1294	38.3500	-135	-146	186	100865	0.38 
47.594	0.1655	0.0342	0.8535	-3.0518	30.8838	-0.7935	-1.9940	-37.0898	152.1057	38.3400	-135	-142	187	100865	0.38 
47.703	-0.1450	-0.0308	1.1045	0.1221	-12.8174	0.0000	-3.3893	-34.0686	156.2476	38.3100	-132	-144	181	100866	0.38 
47.766	0.0078	0.0684	0.9170	-1.1597	-27.0996	-28.8696	-3.5815	-34.9530	158.8348	38.3400	-137	-141	185	100866	0.38 
47.922	0.1470	0.1582	0.8057	-7.9346	52.3682	5.0049	-3.7024	-31.4484	162.1692	38.3300	-136	-141	186	100866	0.38 
48.000	0.0898	-0.0161	1.0410	-7.8125	91.9189	4.5776	-4.8175	-22.6923	165.9705	38.3300	-119	-143	181	100866	0.38 
48.156	-0.2544	-0.0229	1.2939	-2.0752	107.5439	13.7329	-5.4108	-10.6622	168.5742	38.3100	-87	-142	171	100866	0.38 
48.219	-0.2407	0.0449	1.4722	0.1221	105.2856	1.3428	-5.4108	0.9668	169.5520	38.3000	-51	-140	166	100867	0.38 
48.312	-0.3701	0.0674	1.6001	2.6245	97.8394	-0.0610	-4.9768	11.1621	168.9532	38.2900	-13	-148	172	100866	0.38 
48.406	-0.4502	0.0283	1.6914	-3.4180	92.5293	-17.3950	-4.9384	20.2753	167.2229	38.3100	22	-147	184	100867	0.38 
48.547	-0.5991	-0.0063	1.7329	-0.6104	103.1494	-11.2915	-5.8887	29.2676	163.7073	38.2900	57	-147	197	100867	0.38 
48.609	-0.8818	0.0005	1.9521	2.9297	81.1768	-7.3242	-6.6852	37.7765	159.8401	38.2900	86	-149	218	100867	0.38 
48.703	-1.0239	0.0952	1.7695	1.2817	53.8940	-5.9814	-7.6794	42.9620	155.5444	38.2700	115	-148	240	100867	0.38 
48.828	-1.0786	0.1226	1.8774	-5.0049	14.2212	10.9863	-7.3938	45.5878	153.8141	38.2500	130	-146	254	100868	0.38 
48.922	-0.9932	0.0449	1.8867	-11.9019	17.3950	-2.8076	-7.5916	45.7965	152.5836	38.2700	135	-149	264	100867	0.38 
49.031	-1.0205	-0.0146	1.9487	2.8687	4.5166	-7.9956	-9.4373	45.7086	148.7878	38.2500	140	-145	267	100867	0.38 
49.156	-1.0547	0.0225	1.8755	6.0425	-5.5542	9.9487	-8.4814	44.2035	147.3376	38.2400	141	-146	266	100867	0.38 
49.266	-0.9609	0.1270	1.8843	3.2349	-2.3804	13.4277	-6.1469	42.9840	147.9199	38.2400	137	-149	264	100867	0.38 
49.344	-0.9795	0.0479	1.8774	-4.9438	-0.6714	-3.1128	-5.5920	41.9568	147.1289	38.2600	136	-152	266	100867	0.38 
49.471	-1.0293	-0.0020	1.9136	2.2583	0.6714	-4.5776	-6.2292	41.1053	144.6515	38.2600	134	-153	267	100867	0.38 
49.580	-0.9966	0.1025	1.8901	0.8545	1.5869	6.7139	-5.4218	40.2759	143.7286	38.2700	139	-153	265	100866	0.38 
49.689	-0.9907	0.0557	1.8599	0.4272	-14.8926	-2.1973	-4.8285	38.7543	142.8607	38.2900	137	-151	263	100867	0.38 
49.815	-0.9741	0.0249	1.9009	1.1597	-24.9023	-2.6855	-4.7186	36.2274	141.5204	38.2800	131	-148	265	100867	0.38 
49.877	-0.9287	0.0493	1.8813	3.2349	-47.3633	2.1973	-4.0320	32.0306	140.6854	38.2900	124	-152	255	100867	0.38 
50.002	-0.8125	0.0615	1.8467	4.7607	-61.6455	1.3428	-3.0597	26.2518	140.4053	38.2900	111	-148	235	100867	0.38 
50.112	-0.7109	0.1030	1.8311	3.2959	-77.2095	1.2817	-2.1094	19.4733	140.2679	38.3200	89	-151	218	100867	0.38 
50.206	-0.5415	0.0752	1.7822	0.9766	-88.5010	10.1929	-1.2909	11.4038	141.0425	38.3200	62	-151	199	100866	0.38 
50.393	-0.4497	0.0684	1.7153	3.0518	-68.2983	-0.7324	-0.8130	4.2517	142.2784	38.3200	34	-149	182	100867	0.38 
50.424	-0.3320	0.0669	1.5444	4.9438	-88.3179	1.5259	-0.4010	-3.0597	143.3661	38.3200	9	-149	173	100867	0.38 
50.549	-0.1450	0.0918	1.3765	5.9204	-81.4209	-5.0659	0.0494	-10.6018	144.8273	38.3100	-22	-146	164	100867	0.38 
50.643	-0.2070	0.0439	1.2441	8.6060	-84.7778	12.8784	0.4340	-17.3145	147.3981	38.3100	-53	-146	165	100867	0.38 
50.721	-0.2407	-0.0234	1.2490	7.3853	-75.8667	-2.5635	0.3571	-23.9337	150.4138	38.3000	-83	-144	169	100868	0.38 
50.831	-0.1387	0.0815	0.7949	6.6528	-84.4727	-6.1035	1.2305	-31.7450	152.7704	38.3000	-113	-148	177	100868	0.38 
50.924	-0.1440	0.0469	1.0249	8.1787	8.6670	30.2124	0.8075	-33.7555	158.1812	38.3000	-136	-145	188	100868	0.38 
51.065	-0.0884	0.0298	0.7939	0.3662	2.7466	14.1602	-1.0327	-31.4374	164.1083	38.2800	-139	-141	189	100868	0.38 
51.128	-0.0664	0.0254	1.1372	-1.0376	2.9907	1.1597	-1.9116	-27.0374	167.7283	38.2800	-133	-143	185	100868	0.38 
51.252	-0.0229	0.0493	1.0527	-0.6104	-3.5400	4.0894	-2.5708	-25.3235	171.0791	38.2800	-129	-145	184	100868	0.38 
51.331	-0.0068	0.0361	1.0640	0.3052	-2.6245	-0.3052	-2.9279	-23.8403	173.9301	38.2700	-131	-147	182	100868	0.38 
51.456	0.0010	0.0596	0.9604	0.1831	-0.3662	-1.0376	-3.1476	-22.8021	176.7535	38.2600	-128	-143	182	100868	0.38 
51.565	-0.0181	0.0596	1.0503	0.2441	1.9531	-0.7935	-3.2520	-21.0223	179.1980	38.2600	-131	-144	185	100868	0.38 
51.690	0.0034	0.0342	1.0469	-0.0610	-1.3428	0.7935	-3.3398	-19.6600	-178.3575	38.2900	-131	-146	182	100868	0.38 
51.768	-0.0264	0.0527	1.0322	0.0000	-1.1597	-1.8311	-3.4497	-18.7592	-175.9955	38.2700	-135	-142	185	100868	0.38 
51.877	-0.0742	0.0356	1.0361	0.0610	-10.9863	0.4883	-3.4222	-17.8583	-173.9740	38.2800	-132	-142	184	100868	0.38 
51.987	0.0176	0.0859	0.9639	-2.6855	-8.0566	-4.2114	-3.3728	-17.6715	-172.2546	38.2800	-133	-142	186	100869	0.38 
52.065	-0.1621	0.0679	0.9722	-3.7842	-39.0015	-15.9302	-3.4113	-18.2043	-171.2988	38.2800	-137	-144	186	100868	0.38 
52.221	0.2383	0.0308	0.6123	-7.9346	38.6353	-2.9907	-2.9993	-17.6056	-170.6891	38.2700	-142	-147	184	100869	0.38 
52.315	0.1113	0.1250	1.0210	-3.6621	72.0825	0.3052	-2.9114	-10.9534	-169.1730	38.2700	-130	-146	183	100868	0.38 
52.393	0.1060	0.1104	1.2085	-6.4087	97.2900	-2.1362	-2.9004	-2.5378	-168.4204	38.3000	-104	-145	176	100868	0.38 
52.487	-0.0396	0.1079	1.3145	-9.3994	98.9990	7.6294	-3.3508	7.3499	-168.2831	38.3000	-74	-148	171	100868	0.38 
52.580	-0.1763	0.0845	1.4980	-5.6152	90.8203	3.7231	-3.6749	16.4136	-168.5028	38.3000	-41	-142	165	100868	0.38 
52.690	-0.3477	0.0835	1.5996	-5.2490	82.7026	0.9766	-3.9056	24.4666	-169.7333	38.2900	-10	-147	172	100868	0.38 
52.784	-0.4194	0.0596	1.6802	-5.1880	86.7920	-3.4180	-4.4110	31.7505	-171.7163	38.3000	22	-147	181	100868	0.38 
52.893	-0.5664	0.0093	1.7515	2.6245	83.8623	-8.9722	-5.9161	39.2267	-176.0504	38.2800	50	-146	192	100868	0.38 
53.002	-0.8223	0.0425	1.9497	4.4556	74.6460	9.0332	-5.7404	45.8789	-179.6045	38.3000	81	-149	211	100868	0.38 
53.112	-0.9482	0.1089	1.8057	-4.3945	42.4194	7.5684	-5.5536	49.7571	178.2751	38.3000	103	-156	226	100868	0.38 
53.222	-1.0200	0.0361	1.9766	8.1787	21.4233	-9.9487	-6.3666	51.9159	173.7543	38.3000	116	-155	244	100868	0.38 
53.315	-0.9653	0.1245	1.8721	-2.7466	0.7935	1.8921	-6.9543	50.7678	170.0134	38.3000	123	-154	247	100868	0.38 
53.424	-0.8975	0.0728	1.8931	-1.2817	-6.4697	-1.3428	-7.1741	49.0869	167.3492	38.3000	121	-154	250	100868	0.38 
53.534	-0.8867	0.0581	1.8589	-3.5400	-7.6294	1.9531	-7.3828	46.7578	164.9597	38.3100	119	-151	245	100868	0.38 
53.627	-0.8667	0.0684	1.8809	-0.2441	-9.3994	-0.6714	-7.3883	44.7034	162.6965	38.3100	116	-155	243	100868	0.38 
53.737	-0.8594	0.0542	1.9004	1.3428	-8.3008	0.9155	-7.1411	42.6270	160.6311	38.3200	118	-150	242	100867	0.38 
53.862	-0.8916	0.0811	1.8857	0.3662	-22.9492	1.4038	-6.5369	40.0122	159.0765	38.3300	112	-155	240	100867	0.38 
53.940	-0.8374	0.0669	1.8779	-0.1831	-39.7949	1.2817	-5.8063	36.2164	157.9120	38.3300	105	-151	232	100867	0.38 
54.065	-0.7393	0.0596	1.8442	-0.4883	-52.3682	-2.1973	-5.3174	30.7947	156.8298	38.3300	90	-151	218	100867	0.38 
54.174	-0.6382	0.0737	1.7939	-1.9531	-63.4766	-3.4180	-4.8889	24.3512	156.0992	38.3300	76	-155	209	100867	0.38 
54.268	-0.4790	0.0117	1.6904	7.8735	-74.2798	-6.7749	-4.1638	16.8091	155.4785	38.3400	51	-151	190	100866	0.38 
54.362	-0.3452	0.0620	1.6489	8.6060	-78.0640	4.5166	-2.8510	9.1241	156.2036	38.3200	21	-149	177	100866	0.38 
54.471	-0.2217	0.0918	1.4951	7.6904	-67.7490	1.3428	-1.5601	2.5873	157.7142	38.3200	-1	-150	173	100866	0.38 
54.581	-0.2056	0.1431	1.4399	-1.0376	-61.5845	-2.6855	-0.8130	-3.4497	159.1150	38.3400	-29	-151	166	100866	0.38 
54.659	-0.2026	0.1328	1.3809	3.9063	-68.2983	0.3662	-0.3571	-8.9099	161.0321	38.3300	-55	-148	166	100866	0.38 
54.784	-0.1074	0.0669	1.3208	3.9673	-76.9043	-9.3994	0.0659	-15.0348	163.0371	38.3000	-77	-149	168	100866	0.38 
54.893	0.1201	0.1357	1.1367	8.1787	-82.8247	-18.9819	0.8624	-21.1047	164.3719	38.3000	-102	-150	172	100865	0.38 
54.988	0.6499	0.2202	0.5708	-1.0986	-25.5737	10.6812	1.8402	-26.9440	167.2778	38.3100	-127	-151	182	100866	0.38 
55.096	-0.1104	0.1445	1.0322	-3.1128	0.5493	15.7471	0.5768	-24.6149	171.7767	38.2800	-130	-149	184	100866	0.38 
55.190	0.0601	-0.0171	0.9478	2.3804	25.6348	-5.2490	-0.6097	-22.7692	176.5668	38.2800	-132	-144	188	100866	0.38 
55.299	0.0049	0.0854	1.1426	1.2207	-0.9155	3.4180	-0.7526	-20.2313	178.9178	38.2800	-130	-148	183	100865	0.38 
55.378	-0.0054	0.0371	0.9980	-1.0376	-1.8311	3.7842	-1.0931	-19.4238	-178.2092	38.2900	-130	-147	185	100865	0.38 
55.503	-0.0142	0.0435	1.0400	0.2441	-0.4883	-2.0142	-1.2524	-18.3087	-176.1658	38.2900	-129	-146	180	100865	0.38 
55.581	0.0068	0.0601	1.0317	0.6104	2.9297	-2.1973	-1.2744	-17.2595	-174.1388	38.2600	-129	-148	184	100865	0.38 
55.706	-0.0156	0.0977	1.0620	0.4883	-0.4272	0.8545	-1.1591	-16.0345	-172.3865	38.2500	-133	-144	186	100865	0.38 
55.815	-0.0303	0.0566	1.0317	-0.1831	-0.8545	1.8311	-1.1261	-15.0842	-170.4254	38.2700	-131	-147	185	100865	0.38 
55.893	-0.0151	0.0605	1.0425	-0.3052	-0.2441	0.0610	-1.1481	-14.1614	-168.6182	38.2500	-132	-145	184	100865	0.38 
56.018	-0.0195	0.0630	1.0557	0.0610	1.2207	-0.9155	-1.1096	-13.2550	-166.9812	38.2400	-129	-145	184	100865	0.38 
56.096	-0.0186	0.0630	1.0420	0.0000	-0.6714	1.3428	-0.9998	-12.4585	-165.5090	38.2600	-129	-144	188	100865	0.38 
56.221	-0.0015	0.0581	1.0308	-0.2441	0.4272	1.5869	-0.9229	-11.6840	-163.9819	38.2600	-131	-145	185	100865	0.38 
56.300	-0.0659	0.0308	1.0322	-0.4272	-8.6670	0.1831	-0.8954	-11.0907	-162.5592	38.2800	-130	-149	185	100865	0.38 
56.425	-0.0059	0.0615	0.9365	-0.6104	-11.0474	-11.1694	-0.8240	-11.2939	-162.0978	38.2500	-131	-146	183	100865	0.38 
56.534	-0.1396	0.1221	1.0142	-1.8921	-20.5688	-2.6245	-0.5658	-11.6620	-161.3287	38.2500	-134	-146	189	100864	0.38 
56.628	0.1167	0.0278	0.7842	-3.4180	-2.1973	-23.5596	-0.4614	-12.6672	-160.7465	38.2400	-137	-148	187	100865	0.38 
56.721	0.0635	0.2422	0.9165	-7.9956	56.2134	9.2773	-0.0824	-8.3496	-160.6256	38.2200	-134	-149	185	100865	0.38 
56.833	0.0522	0.0449	1.1328	-10.4980	78.9795	7.3853	-0.8734	-1.2195	-158.5492	38.2100	-116	-148	178	100864	0.38 
56.942	0.1313	0.0425	1.2505	-8.9722	90.1489	10.1929	-1.2854	7.2290	-157.6428	38.2300	-88	-144	167	100864	0.38 
57.021	-0.3145	0.0371	1.3887	-7.9956	84.1675	5.2490	-1.8896	15.7489	-157.6923	38.2100	-58	-143	167	100864	0.38 
57.145	-0.5132	0.1089	1.5825	-5.4321	85.4492	-4.5166	-2.5818	24.0051	-159.5380	38.2100	-31	-143	168	100864	0.38 
57.254	-0.3003	0.0806	1.6211	-5.2490	89.9658	4.0894	-3.2410	31.4648	-161.9110	38.1900	4	-145	172	100864	0.38 
57.349	-0.5337	0.0552	1.7368	-1.1597	97.9614	0.3662	-4.1309	39.5068	-164.8114	38.1900	34	-147	184	100864	0.38 
57.442	-0.7910	0.0220	1.9009	1.0986	74.7070	8.4839	-4.3671	46.5271	-167.9645	38.1800	69	-148	201	100864	0.38 
57.567	-0.8887	0.0234	1.8413	-1.2817	69.4580	-5.2490	-5.7623	51.7786	-172.4524	38.1800	93	-151	222	100864	0.38 
57.708	-0.9878	0.0371	1.8853	2.6245	39.6118	-3.2349	-8.1958	55.6458	-178.7256	38.1800	110	-151	245	100864	0.38 
57.771	-0.9990	-0.0117	1.8906	7.8735	14.4653	-11.2915	-9.9866	56.0522	175.5286	38.1900	122	-148	253	100864	0.38 
57.942	-0.9868	0.1279	1.8984	-5.0049	12.8784	10.6812	-9.8657	55.5798	172.0459	38.1800	130	-149	254	100864	0.38 
57.989	-0.9966	0.0444	1.8818	-1.9531	-5.5542	-1.8921	-9.7778	54.0253	169.4916	38.1800	130	-150	258	100863	0.38 
58.083	-0.9468	0.0273	1.8716	-2.9907	-8.2397	-2.7466	-10.6897	51.6852	165.9869	38.1900	131	-152	256	100863	0.38 
58.207	-0.9209	0.0234	1.8750	1.5869	-11.9019	0.8545	-10.6512	49.1803	163.3447	38.2200	127	-151	254	100864	0.38 
58.332	-0.9639	0.0610	1.8926	-0.9155	-27.2827	-5.0659	-10.1514	46.2579	161.3782	38.2000	125	-149	252	100864	0.38 
58.411	-0.9141	0.0352	1.8716	0.3662	-45.1660	-2.6855	-9.4208	41.1877	159.6368	38.2100	115	-147	242	100864	0.38 
58.505	-0.7651	0.0552	1.8447	4.2725	-58.9600	2.3804	-8.3057	34.9915	158.6481	38.2200	101	-146	233	100864	0.38 
58.629	-0.5933	0.0869	1.8555	6.2256	-86.1206	-1.5259	-6.7566	26.9879	158.2635	38.2000	81	-143	212	100864	0.38 
58.754	-0.6182	0.1060	1.8647	4.5166	-67.8101	-13.1226	-5.6030	18.9404	157.9449	38.2300	56	-148	193	100864	0.38 
58.833	-0.4629	0.0361	1.6699	5.7983	-87.5854	-6.2866	-4.5428	10.6677	157.6263	38.2200	25	-144	180	100864	0.38 
58.926	-0.2617	0.1001	1.4868	13.7939	-91.5527	3.4790	-3.2574	1.9830	158.3130	38.2400	-4	-144	172	100864	0.38 
59.020	-0.1182	0.0649	1.2930	13.8550	-88.8672	11.9019	-1.5820	-6.1304	160.6256	38.2400	-36	-143	164	100864	0.38 
59.130	-0.1597	0.1128	1.0488	8.7280	-91.4917	10.4980	-0.5054	-14.0900	163.1525	38.2200	-73	-148	168	100864	0.38 
59.254	-0.2529	-0.0757	0.9248	0.3052	-83.0688	0.7324	-0.6152	-21.6486	166.4594	38.2300	-101	-147	174	100864	0.38 
59.426	0.2769	0.1689	0.5498	2.0752	-40.6494	4.7607	0.0000	-28.4601	168.5248	38.2100	-130	-146	183	100864	0.38 
59.473	-0.1753	0.1821	1.0752	1.9531	4.5166	38.1470	-0.2527	-24.9939	173.2214	38.2200	-136	-145	184	100864	0.38 
59.520	-0.0044	0.0249	1.0078	1.8311	48.5229	-16.2964	-1.5491	-22.4121	178.1818	38.2100	-136	-143	186	100864	0.38 
59.645	-0.0034	0.0723	1.1797	-0.1221	5.4932	-0.9155	-1.5765	-19.2700	-179.7253	38.2000	-129	-145	185	100864	0.38 
59.739	-0.0669	0.0220	1.0444	-1.3428	-2.5635	4.4556	-2.0544	-18.0176	-176.9843	38.1900	-126	-142	184	100864	0.38 
59.864	-0.0127	0.0337	1.0562	0.3052	0.3052	-0.3052	-2.0984	-16.7871	-174.8914	38.1700	-123	-141	181	100864	0.38 
60.020	0.0068	0.0610	1.0542	0.6104	5.3101	-0.0610	-2.0819	-15.5731	-172.9193	38.1800	-125	-144	182	100864	0.38 
60.067	-0.0308	0.0679	1.1011	1.1597	1.4648	1.4648	-1.9116	-14.1833	-171.1890	38.1900	-123	-141	182	100864	0.38 
60.239	-0.0195	-0.0034	1.0830	0.2441	0.9155	1.8311	-1.9116	-13.0957	-169.1016	38.1700	-123	-144	181	100864	0.38 
60.286	-0.0112	0.0508	1.0894	-0.7324	2.0752	2.1362	-1.8842	-12.2443	-167.5800	38.2200	-126	-142	181	100865	0.38 
60.395	-0.0161	0.0479	1.0864	-0.1221	2.1362	1.1597	-1.8457	-11.2775	-165.9924	38.1800	-122	-145	183	100864	0.38 
60.458	-0.0142	0.0537	1.0879	-0.0610	-0.6104	-0.3052	-1.7633	-10.4370	-164.4983	38.1900	-122	-142	181	100864	0.38 
60.645	-0.0220	0.0537	1.0747	-0.1831	-2.7466	-2.0752	-1.6534	-9.9042	-163.2129	38.1800	-122	-142	180	100865	0.38 
60.723	-0.0068	0.0396	1.0830	0.1831	-0.7324	-0.4883	-1.5106	-9.3933	-162.0923	38.2000	-121	-146	181	100865	0.38 
60.786	-0.0093	0.0503	1.0840	0.1831	-2.5024	-0.9155	-1.3293	-8.9319	-161.0541	38.1800	-122	-146	183	100865	0.38 
60.895	-0.0176	0.0425	1.0664	0.3662	-2.3193	0.1221	-1.1481	-8.5419	-160.0488	38.1900	-123	-146	180	100865	0.38 
60.958	-0.0166	0.0146	1.0835	0.7324	-1.3428	-5.1880	-1.0107	-8.1464	-159.0546	38.1800	-123	-144	182	100864	0.38 
61.083	-0.0605	0.1050	1.0034	0.7935	-20.0195	-0.5493	-0.7031	-8.5693	-158.6206	38.2000	-126	-144	182	100864	0.38 
61.192	-0.1479	0.0112	1.0459	-3.9063	-31.9214	-10.2539	-0.8020	-9.9261	-157.4780	38.1900	-131	-145	185	100864	0.38 
61.317	0.1592	0.1709	0.6587	-6.5308	3.2349	-8.9722	-0.2307	-11.3544	-158.5986	38.1700	-136	-143	184	100864	0.38 
61.411	0.1768	0.0801	0.9067	-10.5591	51.5137	1.2207	-0.3680	-7.0807	-157.5604	38.1900	-133	-146	185	100864	0.38 
61.520	0.0249	-0.0435	1.1479	-3.6621	74.4019	6.8359	-0.9283	-0.6482	-156.1157	38.1900	-116	-146	176	100865	0.38 
61.614	-0.2314	0.0420	1.2798	-2.3193	86.1206	11.7798	-0.8734	7.5146	-155.3687	38.1900	-91	-143	168	100865	0.38 
61.693	-0.2598	0.0576	1.4170	-6.9580	83.8623	-6.0425	-1.0492	15.7544	-155.2698	38.1900	-63	-143	167	100865	0.38 
61.833	-0.3120	0.0767	1.5352	-3.3569	79.4067	-3.8452	-1.6425	23.2416	-156.8134	38.2000	-32	-145	169	100865	0.38 
61.896	-0.3799	0.0283	1.6143	-7.1411	78.4302	-5.9814	-2.5214	30.3333	-159.5490	38.1800	-3	-141	173	100864	0.38 
62.036	-0.4956	0.1016	1.7217	-5.3101	83.5571	3.6011	-3.8562	37.0569	-162.9218	38.2000	26	-144	181	100864	0.38 
62.130	-0.6782	0.0464	1.7822	0.6714	95.9473	5.6152	-4.7626	44.7913	-166.5692	38.1800	57	-148	196	100864	0.38 
62.223	-0.9160	0.0376	2.0020	3.0518	79.7119	7.8125	-5.4767	52.4872	-170.7715	38.1900	89	-148	221	100865	0.38 
62.349	-1.0386	0.0645	1.8477	1.5259	66.3452	-3.9673	-7.1521	57.4750	-176.0834	38.2100	118	-151	242	100865	0.38 
62.442	-1.0879	0.0376	1.8857	-0.4883	24.1089	-2.1362	-9.0637	59.9030	178.2642	38.2000	131	-155	257	100865	0.38 
62.537	-1.0864	0.0488	1.8940	-2.9297	4.4556	1.2207	-10.6842	59.4415	173.4576	38.2100	140	-152	267	100865	0.38 
62.661	-1.0425	0.0381	1.8887	-1.2207	-8.7891	-0.8545	-11.3324	57.4805	169.8267	38.2100	137	-151	272	100864	0.38 
62.740	-0.9971	0.0400	1.8828	0.4883	-10.9253	0.7324	-11.2830	54.7833	166.9482	38.1900	140	-154	269	100864	0.38 
62.895	-0.9541	0.0469	1.8716	0.1221	-7.8735	1.6479	-10.8984	52.3279	164.5367	38.2000	135	-152	266	100864	0.38 
62.974	-0.9600	0.0430	1.8721	-0.2441	-5.5542	-1.4648	-10.7446	50.1416	162.0044	38.2100	134	-152	264	100864	0.38 
63.052	-1.0337	0.0371	1.9253	0.4883	-29.0527	-2.7466	-10.4865	47.3291	159.6698	38.2200	130	-149	259	100864	0.38 
63.177	-0.9878	0.0352	1.9038	3.2349	-55.2368	0.7324	-9.3494	41.7645	158.3569	38.2200	124	-150	246	100864	0.38 
63.302	-0.8447	0.0562	1.8521	3.6011	-80.3833	5.0659	-7.5256	33.9587	158.1866	38.2100	105	-150	230	100864	0.38 
63.380	-0.6826	0.0430	1.8130	3.9673	-102.4780	6.8359	-5.8997	24.5270	158.4064	38.2400	80	-148	207	100864	0.38 
63.474	-0.5068	0.0532	1.7080	4.6997	-100.4639	-5.4321	-4.7736	14.9634	158.4888	38.2300	45	-149	188	100864	0.38 
63.646	-0.3247	0.0439	1.5654	6.2256	-92.8955	-3.9063	-3.8123	5.5865	158.8129	38.2100	11	-149	175	100863	0.38 
63.692	-0.1953	0.0435	1.3945	9.8877	-95.8862	3.1738	-2.6971	-3.2959	160.2576	38.2100	-24	-146	167	100864	0.38 
63.802	-0.1792	0.1206	1.2119	6.5308	-92.1021	-0.3052	-1.8292	-11.3434	162.1857	38.2200	-57	-147	162	100864	0.38 
63.896	-0.2363	0.1226	0.9863	7.0801	-84.8389	-7.2021	-1.1865	-18.4076	163.8391	38.2100	-90	-147	168	100864	0.38 
64.005	-0.1284	0.1108	0.7490	5.0659	-86.6089	20.8130	-0.0494	-25.5267	165.7178	38.2000	-114	-150	175	100864	0.38 
64.146	-0.1323	0.0288	0.9443	0.6714	41.0767	30.5786	-0.5823	-27.0044	171.0626	38.1900	-133	-145	189	100864	0.38 
64.208	-0.1123	0.0264	1.1055	8.4229	16.4185	30.7617	-1.0767	-22.8406	175.9186	38.1900	-131	-145	184	100864	0.38 
64.317	-0.0596	0.0957	1.1553	0.0000	8.7280	-0.4272	-1.6534	-20.3741	179.3408	38.1700	-128	-141	182	100864	0.38 
64.412	-0.0732	0.0649	1.0894	1.9531	-6.5308	-0.9766	-1.7633	-18.8855	-178.2202	38.1800	-124	-146	183	100864	0.38 
64.521	-0.0029	0.0107	1.0996	-1.0376	0.9766	-1.5259	-1.9830	-17.7704	-176.0120	38.1800	-124	-149	185	100864	0.38 
64.615	-0.0107	0.0439	1.0474	0.0000	1.2207	-2.5635	-2.1753	-16.7542	-173.9081	38.1600	-126	-145	183	100864	0.38 
64.709	-0.0322	0.0415	1.0811	0.0610	2.5024	-0.0610	-2.2028	-15.4742	-172.0404	38.1900	-124	-148	182	100863	0.38 
64.896	-0.0122	0.0474	1.0850	0.4272	1.2817	0.6104	-2.1259	-14.3481	-170.2002	38.1500	-123	-147	184	100864	0.38 
64.943	-0.0244	0.0249	1.0723	-0.1831	1.1597	3.0518	-2.0764	-13.4692	-168.5632	38.1800	-127	-146	182	100864	0.38 
65.005	-0.0220	0.0347	1.0762	-0.9766	0.3662	1.0376	-2.1313	-12.5134	-166.8933	38.1800	-122	-146	186	100863	0.38 
65.146	-0.0107	0.0513	1.0781	0.0000	1.5259	0.4883	-2.0874	-11.5961	-165.3662	38.1700	-125	-149	180	100864	0.38 
65.224	-0.0146	0.0239	1.0820	-0.0610	2.0142	1.4648	-2.0215	-10.6842	-163.8776	38.1700	-123	-147	181	100864	0.38 
65.334	-0.0186	0.0083	1.0859	0.2441	-3.6621	-3.7842	-1.9720	-10.2393	-162.6251	38.1600	-125	-146	179	100864	0.38 
65.427	-0.0195	0.0767	1.2007	-1.8311	-13.2446	-5.6763	-1.8567	-10.1788	-161.5375	38.1800	-125	-148	182	100864	0.38 
65.552	-0.0967	0.0342	1.0884	-3.7231	-21.4233	-6.3477	-1.8073	-11.6016	-160.6915	38.2000	-131	-144	182	100863	0.38 
65.661	0.0112	0.1328	0.8643	-3.2959	-19.2261	-35.5225	-1.5875	-13.2385	-161.4606	38.1900	-138	-142	187	100863	0.38 
65.755	0.1436	0.1338	0.8789	-10.3760	47.1191	-5.6152	-1.0492	-10.6293	-161.9659	38.2000	-135	-149	186	100863	0.38 
65.911	0.1890	0.1294	1.0903	-10.7422	66.6504	-1.6479	-1.7084	-4.6143	-161.3617	38.1900	-120	-146	182	100864	0.38 
66.005	0.0527	0.1631	1.1489	-8.0566	76.5381	12.5122	-1.7963	2.5488	-160.7739	38.1800	-100	-146	174	100864	0.38 
66.068	-0.3032	0.0986	1.3691	-3.3569	72.8760	10.4370	-1.8182	10.3821	-159.8730	38.1800	-74	-147	172	100864	0.38 
66.146	-0.3223	0.0596	1.4668	-0.7324	65.5518	5.2490	-1.6370	17.0288	-159.9609	38.1700	-43	-146	167	100864	0.38 
66.302	-0.2593	0.0889	1.5264	-1.7090	61.4014	-5.0659	-1.7303	22.4011	-161.5924	38.1700	-21	-145	168	100864	0.38 
66.380	-0.3228	0.0845	1.5776	-5.7373	58.2275	-9.5825	-2.7136	27.4603	-164.3884	38.1500	0	-147	174	100864	0.38 
66.474	-0.4360	0.1123	1.7109	-7.8735	60.5469	0.0000	-3.7244	32.1680	-167.1680	38.1600	21	-144	176	100863	0.38 
66.552	-0.5767	0.0400	1.7266	-5.6763	68.9087	-1.8311	-4.7461	37.2766	-170.2551	38.1700	41	-146	187	100863	0.38 
66.693	-0.7319	0.0186	1.9473	2.9907	125.3052	4.8218	-5.9106	45.2582	-174.3420	38.1800	69	-141	205	100863	0.38 
66.787	-0.8457	0.1602	1.9336	-7.5073	58.8989	7.0190	-7.0258	51.8555	-178.8080	38.1900	103	-149	225	100863	0.38 
66.927	-0.9854	0.1006	1.8979	-8.7280	30.3345	-7.9346	-9.2010	54.3658	176.6382	38.2000	119	-148	242	100863	0.38 
67.021	-1.0596	-0.0034	1.8911	-5.4932	27.0996	-1.1597	-11.7444	55.3766	171.3428	38.1800	126	-147	254	100864	0.38 
67.115	-1.0439	-0.0059	1.8848	1.4038	19.0430	6.7139	-12.4695	55.9644	167.6184	38.2100	136	-147	263	100864	0.38 
67.224	-1.0244	0.0571	1.9033	4.7607	8.6670	3.3569	-11.9586	55.2612	164.8334	38.1900	142	-145	269	100864	0.38 
67.318	-1.0332	0.0747	1.8794	1.1597	3.7842	1.8921	-11.3983	54.0637	162.3065	38.1900	142	-149	271	100864	0.38 
67.396	-1.0283	0.0410	1.8794	-0.6104	1.5259	-2.9297	-11.3873	52.6575	159.5160	38.1900	142	-151	272	100864	0.38 
67.521	-1.0200	0.0449	1.8936	0.0610	0.5493	-0.6714	-11.4587	51.2018	156.8188	38.2100	141	-150	271	100863	0.38 
67.630	-1.0527	0.0576	1.8862	0.6104	1.0376	2.0752	-10.9753	49.8505	154.7974	38.2300	140	-147	271	100864	0.38 
67.740	-1.0293	0.0527	1.8740	-0.0610	-0.3662	0.0610	-10.5579	48.5925	152.8198	38.2100	143	-150	270	100863	0.38 
67.865	-1.0298	0.0449	1.8735	-0.4883	-0.3662	0.1831	-10.1953	47.3236	150.9851	38.2200	143	-151	274	100863	0.39 
67.974	-1.0234	0.0435	1.8789	0.7324	-1.1597	0.2441	-9.7723	46.1096	149.2163	38.2300	140	-150	272	100863	0.39 
68.037	-1.0293	0.0488	1.8794	1.3428	-0.4272	0.5493	-9.2560	44.9121	147.5848	38.2400	141	-148	274	100863	0.39 
68.162	-1.0288	0.0537	1.8794	1.4038	0.0000	0.0000	-8.7177	43.8739	146.0468	38.2200	140	-149	271	100862	0.39 
68.271	-1.0415	0.0557	1.8892	0.7324	-0.6714	-0.3052	-8.1903	42.8687	144.6130	38.2400	142	-149	276	100863	0.39 
68.412	-1.0142	0.0566	1.8813	0.9155	0.7935	0.1221	-7.7069	41.8579	143.2727	38.2400	140	-151	271	100862	0.39 
68.474	-1.0283	0.0586	1.8818	0.7935	0.5493	0.0000	-7.2180	41.0339	142.0422	38.2400	142	-152	273	100863	0.39 
68.599	-1.0264	0.0625	1.8823	0.0000	0.4883	-0.4883	-6.7346	40.2814	140.8942	38.2500	141	-149	272	100863	0.38 
68.755