StartTime: 2017-07-14 14:47:44.458
Time(s)	ax(g)	ay(g)	az(g)	wx(deg/s)	wy(deg/s)	wz(deg/s)	AngleX(deg)	AngleY(deg)	AngleZ(deg)	T(°)	hx	hy	hz	Pressure(Pa)	Altitude(m) 
202.871	-0.3340	-0.0254	0.9810	-0.7935	-1.4648	0.5493	-1.5875	18.6713	6.9928	44.7600	54	133	-114	100551	0.65 
203.027	-0.3354	-0.0264	0.9751	-0.4272	-2.0142	1.3428	-1.6095	18.5120	7.0148	44.7600	52	134	-115	100552	0.65 
203.090	-0.3350	-0.0327	0.9761	-0.4883	-1.6479	0.5493	-1.6315	18.3801	7.0752	44.7700	55	137	-111	100552	0.65 
203.215	-0.3682	-0.0396	0.9731	-0.9155	-1.2817	2.3193	-1.6479	18.3527	7.1356	44.7600	52	131	-117	100552	0.65 
203.277	-0.3809	-0.0332	0.9531	-2.6245	-1.2207	4.3945	-1.6809	18.4131	7.2894	44.7700	56	136	-115	100552	0.65 
203.465	-0.3926	-0.0664	0.9023	-1.0986	8.9111	2.3804	-1.8457	18.8800	7.3938	44.7600	58	135	-114	100552	0.65 
203.527	-0.5479	0.0171	0.7446	0.9155	32.0435	-0.2441	-1.8347	21.6101	6.5918	44.7900	60	132	-116	100552	0.65 
203.621	-0.2646	0.1255	0.3262	7.5073	93.8721	31.3110	-0.1923	28.4875	7.3334	44.7600	70	134	-113	100552	0.65 
203.699	-0.4165	-0.0625	0.3711	1.5259	53.4668	1.8921	0.6921	35.6671	9.5966	44.7800	93	131	-109	100552	0.65 
203.793	-0.4805	0.0923	0.9224	-22.5220	-27.2827	25.6958	2.2577	39.0674	11.9147	44.7700	110	125	-101	100553	0.64 
203.903	-0.6440	-0.1460	0.8550	-10.4370	3.7842	3.0518	-0.2087	37.0624	11.4862	44.7600	107	127	-96	100553	0.64 
204.012	-0.7842	0.0576	1.1318	-5.7983	-47.1802	4.3335	-0.0110	34.7333	12.7881	44.7600	109	127	-97	100554	0.64 
204.090	-0.6177	-0.1152	1.1533	2.9297	-72.5098	6.8970	-0.2472	28.1305	13.3813	44.7700	100	129	-98	100555	0.64 
204.215	-0.4590	-0.0073	1.2549	1.4648	-44.8608	7.1411	0.2802	22.4561	14.2218	44.7500	87	123	-102	100556	0.64 
204.324	-0.3281	0.0010	1.2363	-3.2349	-33.0811	-9.9487	-0.2802	17.4353	14.1888	44.7500	77	126	-103	100556	0.64 
204.418	-0.1426	-0.0283	0.9297	8.5449	-19.5313	-1.9531	-0.0385	14.4580	13.9691	44.7300	69	124	-102	100557	0.64 
204.512	-0.1948	0.0010	0.9814	5.3711	-12.0850	1.2207	0.6262	13.2385	14.4635	44.7000	66	124	-103	100557	0.64 
204.637	-0.2261	0.0127	1.0371	2.0752	-9.3994	4.8828	0.9558	11.7993	14.9744	44.6900	65	121	-109	100557	0.64 
204.700	-0.2056	0.0303	1.0254	3.6621	0.7324	2.4414	1.2744	11.3214	15.3040	44.7000	58	125	-107	100557	0.64 
204.840	-0.1880	0.0322	0.9907	2.5635	3.5400	0.7935	1.7468	11.5906	15.6555	44.6900	61	121	-109	100557	0.64 
204.933	-0.2402	0.0366	1.0000	0.1831	-1.0376	0.1831	1.8622	11.7664	15.7599	44.7000	62	121	-111	100557	0.64 
205.027	-0.2349	0.0552	1.0098	-3.4180	4.3335	-0.4272	1.7029	11.9147	15.6610	44.6900	61	120	-111	100558	0.64 
205.090	-0.2500	0.0249	0.9985	-0.6714	2.2583	1.2817	1.5491	12.3981	15.5896	44.6800	62	119	-111	100558	0.64 
205.215	-0.2412	0.0059	0.9976	-1.5869	-0.9155	0.1831	1.4337	12.5354	15.7050	44.6900	62	122	-111	100559	0.64 
205.309	-0.2324	0.0161	0.9990	-1.8311	-2.5024	1.7090	1.2854	12.4036	15.7819	44.6800	63	126	-107	100559	0.64 
205.434	-0.2275	0.0190	1.0063	-2.6855	-1.4038	-0.3052	1.0822	12.2443	15.8423	44.6700	60	122	-109	100559	0.64 
205.512	-0.2183	0.0244	0.9980	-3.1128	-1.0986	-0.3052	0.7910	12.1564	15.7819	44.6700	59	120	-111	100559	0.64 
205.652	-0.2075	0.0015	0.9805	-3.2349	0.7935	-0.9155	0.4065	12.0959	15.7050	44.6800	59	124	-107	100559	0.64 
205.715	-0.2168	0.0039	0.9746	-5.9204	6.2866	3.6621	0.0494	12.6727	15.8423	44.6500	58	124	-108	100559	0.64 
205.824	-0.2373	-0.0503	0.9106	-10.0708	2.9297	-6.5308	-1.0602	13.3923	15.6226	44.6700	63	126	-103	100559	0.64 
205.905	-0.2349	-0.0010	1.0396	5.2490	49.9878	11.9629	-1.2415	16.4410	15.9412	44.6600	67	123	-100	100559	0.64 
206.077	-0.5166	-0.1064	1.5659	-0.6714	51.6968	49.2554	0.1703	21.0663	18.3966	44.6600	81	121	-97	100559	0.64 
206.124	-0.5645	0.1421	1.3838	-3.9063	66.8335	-15.2588	0.0385	26.6528	18.7592	44.6800	93	120	-93	100559	0.64 
206.249	-0.7480	0.0254	1.1240	6.3477	33.3862	-8.9722	-0.5383	31.8604	16.5070	44.6600	98	122	-90	100559	0.64 
206.343	-0.7080	-0.0176	1.0054	3.9063	-5.6763	-0.9766	-0.2911	35.0793	15.7489	44.6500	105	121	-94	100559	0.64 
206.452	-0.4351	-0.0063	0.5952	0.4883	-55.2368	-1.1597	-0.4504	32.0197	15.1996	44.6100	102	125	-99	100559	0.64 
206.531	-0.3633	0.0127	0.5464	3.2349	-28.9917	5.0049	-0.4834	29.2017	14.9689	44.5900	93	132	-106	100558	0.64 
206.640	-0.2939	-0.0088	0.4160	2.0142	-35.5835	-0.8545	-0.0275	26.2628	14.6008	44.5500	88	131	-111	100557	0.64 
206.749	-0.4346	0.0254	0.6538	2.0142	-7.0801	2.3193	0.5603	25.0708	13.7659	44.5700	81	131	-120	100556	0.64 
206.859	-0.5176	-0.0171	0.9775	-2.8687	-24.5361	0.3052	0.5823	24.3402	13.2715	44.5700	79	131	-113	100555	0.64 
206.922	-0.4448	0.0889	0.8828	-5.5542	-7.8735	14.4653	0.3516	22.3187	13.4473	44.5700	76	132	-114	100554	0.64 
207.077	-0.4683	-0.0610	0.9609	-3.6621	-0.3662	12.8174	0.4779	22.1649	14.8700	44.5700	75	130	-116	100554	0.64 
207.140	-0.3901	0.0405	0.9517	-1.4648	0.9155	0.0000	0.4120	22.0715	15.0073	44.5900	75	130	-115	100553	0.64 
207.249	-0.3970	-0.0625	0.9170	-3.7231	0.6714	3.0518	0.3790	21.7749	15.1831	44.5800	75	132	-114	100553	0.64 
207.313	-0.3765	0.0044	0.9512	-1.0986	0.5493	-6.8970	-0.0330	21.8793	14.6613	44.5900	76	134	-114	100553	0.64 
207.468	-0.3750	-0.0005	0.9609	-0.6104	-2.1362	-2.9297	-0.3461	21.9287	14.0076	44.5800	74	127	-113	100553	0.64 
207.531	-0.3813	-0.0239	0.9609	-0.8545	-0.7324	1.2817	-0.4944	21.8134	13.8153	44.5900	72	129	-116	100553	0.64 
207.625	-0.3687	-0.0190	0.9429	-0.2441	-0.4272	1.7700	-0.5054	21.6980	13.8538	44.5800	72	132	-111	100553	0.64 
207.749	-0.3755	0.0010	0.9429	-0.6104	-0.9155	0.9155	-0.5878	21.6211	13.7604	44.6100	76	131	-113	100553	0.64 
207.906	-0.3721	-0.0103	0.9556	-1.5259	-1.0376	2.9297	-0.5603	21.5332	13.8593	44.5900	73	132	-113	100553	0.64 
207.937	-0.3682	-0.0146	0.9624	-0.4272	-2.3193	1.8921	-0.5383	21.5332	14.0460	44.6000	81	133	-108	100553	0.64 
208.015	-0.3765	-0.0093	0.9546	-0.1221	0.2441	1.2817	-0.5493	21.4233	14.1284	44.6100	77	132	-116	100553	0.64 
208.140	-0.3696	-0.0103	0.9600	-0.3662	-1.0986	0.5493	-0.5493	21.3409	14.1119	44.6200	76	130	-115	100553	0.64 
208.234	-0.3735	-0.0171	0.9575	-0.5493	-1.4038	0.7324	-0.5603	21.2256	14.1064	44.6000	76	131	-113	100553	0.64 
208.390	-0.3726	-0.0103	0.9575	-0.3052	-0.8545	-0.1221	-0.6262	21.0992	14.0240	44.6200	76	131	-115	100553	0.64 
208.422	-0.3730	-0.0127	0.9644	-0.1221	1.0986	-0.1221	-0.6482	21.1212	13.9691	44.6100	78	130	-113	100553	0.64 
208.562	-0.3687	-0.0029	0.9653	-0.7935	-2.3804	-0.4272	-0.7031	21.0168	13.9032	44.6200	75	131	-109	100552	0.64 
208.640	-0.3755	-0.0376	0.9668	-1.8921	-4.1504	-1.2817	-0.8624	20.8411	13.8647	44.6300	76	134	-115	100553	0.64 
208.738	-0.3545	-0.0083	0.9512	-1.1597	-1.9531	2.7466	-0.9448	20.4456	13.8812	44.6200	77	132	-114	100552	0.64 
208.847	-0.3726	-0.0327	0.9644	-0.3662	-0.6104	-1.2207	-1.0217	20.4016	13.9307	44.6300	71	129	-111	100552	0.64 
208.972	-0.4624	0.0029	0.9644	0.4272	4.6387	5.4321	-1.0162	20.7312	13.7494	44.6300	71	134	-111	100552	0.64 
209.035	-0.4443	-0.0474	0.8633	0.1831	13.9771	-6.9580	-1.0657	21.8353	13.4363	44.6400	73	135	-108	100553	0.64 
209.160	-0.4756	0.0337	0.6484	2.3193	23.4985	2.1973	-0.8899	24.2523	12.3157	44.6500	80	132	-111	100553	0.64 
209.253	-0.2910	-0.0537	0.3286	0.1221	47.4243	-10.0098	-0.6812	28.4656	11.1786	44.6500	81	133	-108	100553	0.64 
209.350	-0.4224	0.0688	0.6577	5.0659	86.7310	17.0288	0.1428	36.3208	10.1569	44.6400	89	130	-106	100553	0.64 
209.460	-0.5195	0.0278	0.8789	-0.6714	11.1694	-24.2920	-0.7361	40.2100	10.5414	44.6300	105	127	-98	100553	0.64 
209.569	-0.8276	-0.0913	1.1514	-2.6245	1.3428	-1.2817	-0.5109	40.3857	11.4258	44.6400	114	124	-92	100553	0.64 
209.647	-0.8130	0.1099	1.1577	-0.7324	-43.8843	0.6714	-1.0712	36.3702	11.2225	44.6200	107	125	-94	100554	0.64 
209.772	-0.6162	-0.0273	1.1128	4.6997	-68.6035	5.5542	-0.7251	29.6246	11.8433	44.6200	99	125	-97	100554	0.64 
209.881	-0.3789	-0.0435	1.1670	1.1597	-62.8662	-2.8687	-0.1483	22.4286	12.6288	44.6300	84	122	-98	100555	0.64 
209.959	-0.2983	0.0283	1.2637	6.7749	-39.9170	-0.3052	-0.1428	16.5674	12.8320	44.6200	70	123	-106	100555	0.64 
210.041	-0.0859	0.0322	1.0098	2.9297	-15.8691	-10.4980	0.3351	13.2385	12.6617	44.6000	60	126	-107	100556	0.64 
210.180	-0.1084	0.0347	0.9624	1.0376	-15.6860	6.7139	0.7196	11.3928	13.0133	44.6000	56	125	-106	100556	0.64 
210.274	-0.1548	0.0151	1.0264	-1.9531	-16.1743	8.9111	0.7416	9.4592	13.9801	44.5800	50	127	-109	100557	0.64 
210.368	-0.1533	0.0049	1.0420	-3.1128	1.9531	0.2441	0.4614	8.6188	14.2822	44.5800	49	126	-111	100557	0.64 
210.446	-0.1489	0.0020	0.9834	-3.0518	8.7280	3.2959	0.1813	9.0253	14.6063	44.5800	53	127	-109	100556	0.64 
210.587	-0.1641	-0.0303	1.0122	0.1831	2.6855	8.7891	0.1813	9.4098	15.0897	44.5900	54	127	-109	100556	0.64 
210.680	-0.1860	-0.0220	1.0225	-1.3428	2.5024	-2.3193	-0.0769	9.6735	15.1721	44.6000	51	126	-104	100556	0.64 
210.774	-0.2070	0.0269	1.0132	0.7324	6.3477	3.0518	-0.1099	10.1019	15.0677	44.5900	55	126	-110	100556	0.64 
210.852	-0.1978	-0.0186	0.9980	0.0000	4.0283	0.0000	0.0494	10.5908	15.1337	44.5900	55	127	-111	100556	0.64 
210.978	-0.2021	0.0020	1.0117	-0.5493	0.6104	-1.8921	-0.0769	10.9314	15.0073	44.6100	57	127	-107	100557	0.64 
211.056	-0.2070	0.0127	1.0034	-0.1221	1.9531	0.6104	-0.0604	11.0413	14.9030	44.6000	56	126	-106	100557	0.64 
211.196	-0.2129	0.0273	1.0303	-3.4180	8.1177	2.6245	-0.1154	11.5302	15.0458	44.5900	57	127	-106	100557	0.64 
211.244	-0.2153	-0.0771	0.9858	-7.0801	11.1084	-0.9155	-0.8295	12.3157	15.2051	44.5900	56	126	-109	100557	0.64 
211.384	-0.1982	-0.0132	0.9380	-0.4883	26.5503	5.1270	-1.0767	14.2163	15.4303	44.5900	59	128	-103	100557	0.64 
211.477	-0.3237	-0.1353	0.9878	11.2305	48.0957	8.0566	-0.5438	18.2428	15.8752	44.5900	66	124	-102	100558	0.64 
211.571	-0.1792	0.1304	1.1558	0.5493	55.1758	-4.3945	-0.0549	22.1814	15.5237	44.5800	74	120	-103	100557	0.64 
211.666	-0.7349	-0.0586	1.4243	-3.8452	59.2651	-18.0054	0.3406	27.9932	16.2708	44.5800	87	112	-95	100558	0.64 
211.790	-0.8740	0.0591	1.1802	4.1504	19.0430	-41.3818	-1.5656	32.2778	12.7606	44.5500	92	112	-90	100558	0.64 
211.899	-0.7593	-0.0928	1.0991	7.1411	32.2876	7.3242	-2.0270	35.9308	11.0687	44.5400	92	119	-89	100558	0.64 
212.009	-0.4648	-0.0532	0.6392	2.7466	-62.9883	-1.5259	-1.4557	33.4534	11.0742	44.5300	95	123	-101	100558	0.64 
212.056	-0.4810	0.0581	0.7236	0.8545	-13.0615	10.3760	-0.7800	31.5088	11.7883	44.5200	92	125	-105	100557	0.64 
212.196	-0.2832	-0.0034	0.4746	-0.2441	-53.2837	10.0098	-0.0714	27.5867	12.6617	44.5000	84	125	-111	100557	0.64 
212.275	-0.3486	0.0352	0.4985	-1.7700	-29.1138	10.8032	0.6042	23.9337	13.5791	44.4800	77	127	-113	100556	0.64 
212.415	-0.4712	-0.0728	0.8242	0.9766	-10.6812	1.2207	0.4175	22.8131	13.4198	44.5000	79	125	-116	100556	0.64 
212.493	-0.4312	0.0239	0.8789	-3.2959	-17.8833	-5.6152	0.4779	21.6321	12.9694	44.5000	74	127	-113	100555	0.64 
212.603	-0.4165	0.0044	0.9678	-4.7607	3.3569	9.4604	0.1263	21.3959	12.8430	44.5100	68	129	-115	100555	0.64 
212.666	-0.3325	-0.0264	0.9097	0.0610	-4.0894	-3.5400	-0.0934	20.9564	12.9803	44.4900	69	128	-118	100554	0.64 
212.806	-0.4097	0.0439	0.9619	-0.3662	-5.3101	3.6011	-0.0439	20.9454	12.8210	44.5000	70	127	-114	100554	0.64 
212.884	-0.3247	-0.0244	0.9497	0.1221	0.2441	4.5166	0.1978	20.6488	13.2220	44.5100	72	127	-114	100553	0.64 
213.041	-0.3662	0.0107	0.9717	-0.8545	3.6011	2.4414	0.2802	20.8850	13.6560	44.5100	71	128	-112	100553	0.64 
213.103	-0.3911	-0.0249	0.9819	-1.7700	-0.1831	0.3662	0.1923	21.0828	13.7439	44.5200	68	130	-113	100553	0.64 
213.197	-0.3345	-0.0034	0.9502	1.0986	1.5259	-3.6621	0.0165	20.8850	13.4528	44.5300	73	127	-114	100552	0.64 
213.306	-0.3540	0.0063	0.9590	1.1597	0.4883	-4.0894	0.0439	20.9729	12.9803	44.5300	72	127	-114	100553	0.64 
213.403	-0.3652	0.0112	0.9629	-0.1831	0.4883	-3.1738	-0.0989	21.0883	12.3431	44.5200	71	128	-119	100552	0.64 
213.512	-0.3643	-0.0176	0.9595	-0.4272	-0.6104	-0.2441	-0.0604	21.0223	12.4200	44.5300	71	128	-117	100552	0.64 
213.606	-0.3589	-0.0039	0.9624	0.1221	-2.7466	1.9531	-0.0769	20.9235	12.2992	44.5500	69	127	-119	100552	0.64 
213.700	-0.3711	-0.0098	0.9619	0.5493	-0.7324	-1.7090	-0.1208	20.7587	12.1783	44.5300	71	126	-114	100553	0.64 
213.809	-0.3584	0.0132	0.9683	0.3662	-0.9155	-0.7324	-0.0385	20.6213	12.0520	44.5400	71	127	-115	100553	0.64 
213.888	-0.3647	0.0112	0.9678	-0.4272	-0.9766	0.0000	-0.1099	20.5060	11.8433	44.5400	67	127	-116	100553	0.64 
214.028	-0.3521	0.0010	0.9541	-1.2207	-1.8311	3.0518	-0.0769	20.3632	11.9806	44.5300	68	127	-118	100553	0.64 
214.091	-0.3569	-0.0039	0.9644	-1.4648	0.2441	2.5024	-0.1373	20.3961	12.1179	44.5400	69	129	-116	100553	0.64 
214.216	-0.3662	-0.0122	0.9688	-1.0986	-0.3662	2.5635	-0.1923	20.4675	12.3267	44.5300	67	126	-115	100552	0.64 
214.309	-0.3628	-0.0107	0.9658	-1.0986	0.3662	3.2959	-0.2252	20.4346	12.4750	44.5300	66	128	-114	100553	0.64 
214.403	-0.3525	-0.0044	0.9614	-1.7700	-1.5259	1.9531	-0.2966	20.3192	12.5848	44.5300	70	128	-114	100553	0.64 
214.481	-0.3647	-0.0117	0.9702	-1.6479	0.1221	3.1738	-0.3571	20.3082	12.7386	44.5100	69	133	-113	100553	0.64 
214.637	-0.3555	-0.0142	0.9600	-1.6479	0.6714	2.3193	-0.4340	20.2588	12.9913	44.5400	71	128	-112	100552	0.64 
214.700	-0.3604	-0.0142	0.9644	-1.0986	-0.3662	0.4883	-0.5219	20.2698	13.0023	44.5400	69	132	-114	100552	0.64 
214.809	-0.3628	-0.0049	0.9673	-0.7935	-0.6714	1.3428	-0.5438	20.3796	13.0298	44.5400	70	129	-113	100552	0.64 
214.888	-0.3691	-0.0210	0.9683	-1.4648	1.9531	2.6245	-0.5933	20.4620	13.1342	44.5400	73	131	-114	100552	0.64 
215.012	-0.3945	-0.0225	0.9277	-1.3428	4.9438	0.5493	-0.7141	20.7092	13.2001	44.5600	72	130	-111	100552	0.64 
215.091	-0.4976	-0.0400	0.8613	2.8076	16.8457	-22.5220	-0.9338	22.2913	12.0905	44.5600	77	129	-113	100552	0.64 
215.262	-0.6055	0.0474	0.7178	6.0425	49.9268	18.0054	-0.5383	26.3177	10.4535	44.5600	72	131	-110	100552	0.64 
215.309	-0.3940	-0.0527	0.5190	13.6108	60.7300	8.4229	1.3184	32.3328	11.4258	44.5700	84	129	-107	100552	0.64 
215.419	-0.3853	0.0000	0.3579	-1.4038	64.2090	7.3853	2.3730	38.0457	12.1948	44.5600	104	126	-107	100552	0.64 
215.482	-0.5195	-0.0278	0.7935	-12.5122	3.3569	-5.1880	1.7688	43.4674	12.1454	44.5700	115	125	-99	100553	0.64 
215.669	-0.7388	0.0332	0.8960	-11.2305	-1.2817	-11.4136	-0.8514	43.3301	11.3654	44.5700	119	123	-90	100553	0.64 
215.716	-0.6162	-0.0610	0.8320	-14.7095	-61.8286	-4.3945	-2.9883	38.7158	10.5688	44.5600	118	125	-90	100554	0.64 
215.841	-0.9067	-0.0269	1.2495	-6.7139	-87.4634	5.6152	-3.5376	32.0911	11.5576	44.5400	104	130	-88	100554	0.64 
215.919	-0.5371	-0.0278	1.2432	-3.3569	-57.8003	15.3809	-2.9498	24.6753	13.7549	44.5500	91	128	-87	100554	0.64 
216.044	-0.3926	-0.1045	1.3989	1.2207	-55.7861	-22.4609	-2.7521	19.0942	14.7986	44.5500	80	124	-85	100555	0.64 
216.122	-0.0464	-0.0308	0.9209	6.8970	-24.9634	3.9673	-2.8784	14.4415	14.2273	44.5400	64	124	-90	100555	0.64 
216.247	-0.1553	-0.0615	0.9331	3.9673	-29.0527	-0.7935	-2.1753	11.7993	15.3040	44.5300	58	127	-93	100556	0.64 
216.310	-0.1631	-0.0635	1.0386	3.3569	-25.5127	9.1553	-1.7853	8.4320	16.0950	44.5100	54	127	-95	100557	0.64 
216.513	-0.1455	-0.0195	1.0884	1.5869	-7.9346	-1.0986	-1.5216	6.8829	16.3971	44.5100	52	124	-96	100556	0.64 
216.560	-0.1299	-0.0107	0.9985	4.6387	-1.2207	1.0376	-1.1755	6.7072	16.6827	44.5000	51	125	-98	100557	0.64 
216.700	-0.0913	0.0015	0.9800	2.8687	-3.5400	0.9766	-0.7416	6.2677	16.7432	44.5200	51	125	-99	100557	0.64 
216.747	-0.1387	-0.0273	1.0190	0.6714	0.4883	-3.4180	-0.5713	6.2457	16.6553	44.5100	47	124	-101	100557	0.64 
216.841	-0.1465	-0.0112	1.0342	0.6104	5.1880	-1.6479	-0.5878	6.7072	16.2488	44.5300	44	124	-103	100557	0.64 
216.920	-0.1343	-0.0063	1.0044	0.3052	3.0518	-0.5493	-0.5493	7.0862	16.0730	44.5300	51	122	-104	100557	0.64 
217.122	-0.1655	0.0000	1.0269	0.0610	0.0000	0.8545	-0.4614	7.3773	16.1060	44.5400	50	122	-103	100557	0.64 
217.169	-0.1440	-0.0034	1.0278	-0.0610	0.7935	2.8076	-0.4340	7.3444	16.2048	44.5100	49	126	-106	100558	0.64 
217.294	-0.1489	-0.0288	1.0112	-1.2207	0.1221	1.6479	-0.5054	7.3938	16.4355	44.5400	49	127	-103	100558	0.64 
217.341	-0.1299	0.0005	1.0098	-1.6479	0.0610	0.4272	-0.5768	7.3993	16.4410	44.5200	46	125	-102	100558	0.64 
217.528	-0.1519	-0.0107	1.0298	-1.3428	0.0610	0.9155	-0.6812	7.5531	16.4630	44.5300	49	127	-102	100558	0.64 
217.575	-0.1396	-0.0098	1.0078	-2.6245	3.4790	-0.0610	-0.9119	7.7399	16.4465	44.5500	52	126	-102	100557	0.64 
217.606	-0.1284	-0.0518	0.9561	-5.9814	7.1411	1.4038	-1.3239	8.3441	16.5234	44.5400	49	127	-98	100557	0.64 
217.763	-0.2847	-0.0464	1.1045	-3.9063	27.0996	0.4272	-1.9116	11.0138	16.8970	44.5400	56	126	-102	100557	0.64 
217.919	-0.1245	-0.0283	0.9966	1.6479	37.5366	6.8359	-2.1918	13.4912	16.5729	44.5300	61	129	-97	100558	0.64 
217.966	-0.1807	-0.1284	1.2354	-4.2725	64.4531	7.2632	-2.0380	18.3362	17.9846	44.5100	70	121	-94	100557	0.64 
218.060	-0.5776	-0.0918	1.5273	3.4180	72.5708	-23.4985	-1.8127	25.9827	18.6163	44.5100	86	116	-82	100558	0.64 
218.122	-0.8184	-0.0288	1.1069	25.4517	30.7617	1.6479	-2.0874	31.0913	15.2051	44.5200	93	121	-78	100558	0.64 
218.217	-0.7656	-0.0806	1.1440	30.7617	-15.7471	-6.8359	0.7416	33.2281	15.6171	44.4800	97	121	-87	100558	0.64 
218.341	-0.4380	0.0376	0.6729	8.6670	-70.3735	-16.7847	1.4172	28.8391	13.4583	44.4500	89	119	-106	100558	0.64 
218.420	-0.3662	0.0166	0.6436	3.7231	-30.2734	9.8267	1.8182	25.0708	12.4091	44.4400	77	120	-116	100557	0.64 
218.544	-0.2295	0.0195	0.4248	-10.9253	-24.2310	0.9766	1.5436	22.4286	12.2662	44.4300	71	123	-119	100557	0.64 
218.700	-0.3223	-0.0747	0.5210	0.0000	-6.5308	-10.8032	0.5823	22.4780	10.2008	44.4300	64	127	-119	100556	0.64 
218.732	-0.5376	0.0298	1.0791	1.6479	6.2866	1.7090	0.0110	23.8788	8.8000	44.4100	61	126	-114	100556	0.64 
218.810	-0.5073	0.0518	0.9463	-10.1929	7.0190	-12.5732	-1.1096	23.3185	6.7566	44.4200	56	129	-115	100555	0.64 
218.950	-0.3906	0.0073	0.9614	-4.9438	-13.2446	26.9165	-0.5823	23.6261	8.3167	44.4100	58	131	-114	100555	0.64 
219.029	-0.3594	0.0347	0.8843	-0.3662	-7.7515	-11.2915	-1.0217	22.5659	8.3606	44.4000	62	130	-113	100555	0.64 
219.169	-0.4399	-0.0234	0.9482	-1.9531	-3.7231	3.6621	-1.2579	22.2748	7.7124	44.4300	57	131	-114	100555	0.64 
219.232	-0.3682	-0.0386	0.9438	0.9766	-7.5684	0.5493	-1.2415	21.6376	7.5641	44.4300	55	127	-113	100554	0.64 
219.357	-0.3345	-0.0132	0.9395	1.1597	-6.2256	-1.4038	-1.1646	20.7422	7.3224	44.4400	53	129	-115	100554	0.64 
219.450	-0.3525	-0.0264	0.9570	0.2441	-1.7090	-0.5493	-1.1591	20.4071	7.0422	44.4400	49	130	-113	100554	0.64 
219.545	-0.3438	-0.0127	0.9575	0.7324	-0.7935	-0.4272	-1.1481	20.3247	6.6412	44.4300	49	133	-116	100553	0.64 
219.639	-0.3643	-0.0278	0.9595	-0.6714	-0.8545	1.6479	-1.0931	20.3687	6.5094	44.4300	49	128	-116	100552	0.64 
219.748	-0.3555	-0.0039	0.9609	-0.4883	-0.8545	5.4932	-0.9998	20.3357	6.5918	44.4400	52	128	-117	100552	0.64 
219.857	-0.3687	-0.0171	0.9780	-1.7700	2.6855	7.5684	-0.8734	20.4565	7.0917	44.4300	51	131	-115	100553	0.64 
219.936	-0.3667	-0.0220	0.9795	-2.3193	0.3052	5.6152	-0.9009	20.5719	7.5531	44.4300	54	129	-113	100553	0.64 
220.061	-0.3560	-0.0327	0.9604	-2.1973	-2.0752	3.0518	-0.9393	20.4456	7.9541	44.4400	58	134	-115	100552	0.65 
220.154	-0.3477	-0.0166	0.9526	-0.9766	-0.6714	-0.6104	-1.0822	20.2917	7.8772	44.4300	56	130	-113	100552	0.65 
220.217	-0.3506	-0.0151	0.9595	0.0000	-0.6104	0.6714	-1.1316	20.2643	7.7289	44.4300	56	131	-116	100552	0.65 
220.357	-0.3574	-0.0195	0.9712	0.3052	1.4038	0.7324	-1.0931	20.3192	7.7069	44.4200	56	128	-113	100552	0.65 
220.436	-0.3452	-0.0122	0.9512	-0.5493	-0.4272	1.7090	-1.0602	20.2643	7.7344	44.4400	55	126	-109	100551	0.65 
220.576	-0.3560	-0.0166	0.9634	-0.9766	-1.2207	2.2583	-1.0327	20.3027	7.8937	44.4300	59	127	-112	100551	0.65 
220.639	-0.3438	-0.0137	0.9561	-0.1831	-0.9155	3.6011	-0.9833	20.1874	8.1079	44.4400	57	129	-113	100551	0.65 
220.748	-0.3594	-0.0103	0.9736	-1.0986	-0.4883	7.7515	-0.7910	20.2203	8.7067	44.4400	61	131	-114	100551	0.65 
220.858	-0.3779	-0.0347	0.9673	-1.9531	0.7935	3.9063	-0.7745	20.2808	9.2285	44.4500	58	129	-112	100551	0.65 
220.967	-0.3545	-0.0200	0.9546	-0.4272	-0.3052	3.4180	-0.8020	20.2533	9.3439	44.4500	60	128	-114	100551	0.65 
221.045	-0.3550	-0.0049	0.9565	-0.4272	-0.0610	1.8921	-0.7581	20.3082	9.4263	44.4700	65	134	-109	100551	0.65 
221.170	-0.3662	-0.0098	0.9751	-0.9155	0.9155	2.5024	-0.7361	20.4510	9.6405	44.4700	62	128	-112	100551	0.65 
221.233	-0.3662	-0.0220	0.9663	-0.8545	0.1221	3.1128	-0.7526	20.4675	9.8712	44.4600	61	130	-112	100551	0.65 
221.389	-0.3604	-0.0181	0.9561	-0.6104	-1.0986	1.1597	-0.7745	20.4456	9.9316	44.4700	66	127	-114	100551	0.65 
221.451	-0.3628	-0.0151	0.9619	-0.2441	-1.1597	-0.0610	-0.7965	20.3796	9.9426	44.4700	64	127	-110	100551	0.65 
221.561	-0.3628	-0.0186	0.9663	0.0000	-2.0142	-0.6104	-0.8130	20.2972	9.9481	44.4700	64	126	-109	100551	0.65 
221.639	-0.3594	-0.0127	0.9663	0.0000	-0.6104	-1.7090	-0.8569	20.1324	9.8108	44.4900	64	128	-110	100551	0.65 
221.748	-0.3574	-0.0190	0.9609	0.3052	-0.6714	-1.8311	-0.9448	19.9951	9.4647	44.5000	62	128	-116	100551	0.65