StartTime: 2017-07-14 13:50:30.215
Time(s)	ax(g)	ay(g)	az(g)	wx(deg/s)	wy(deg/s)	wz(deg/s)	AngleX(deg)	AngleY(deg)	AngleZ(deg)	T(°)	hx	hy	hz	Pressure(Pa)	Altitude(m) 
510.909	-0.1758	-0.0566	1.0132	0.1221	7.2021	-2.7466	-4.0759	9.1351	-7.8552	44.4600	-8	146	-118	100584	0.62 
510.987	-0.2051	-0.0679	1.0127	-0.3662	9.0332	-0.9766	-4.0979	9.9866	-8.2782	44.4700	-3	146	-117	100584	0.62 
511.096	-0.2695	-0.0840	0.9819	2.3193	18.3716	-4.3945	-4.1144	11.4917	-8.9319	44.4800	-3	144	-115	100584	0.62 
511.190	-0.3101	-0.0503	0.9063	3.9673	30.5786	-1.9531	-3.9331	14.1010	-9.8492	44.4800	0	145	-114	100584	0.62 
511.269	-0.3408	-0.0337	0.7886	2.2583	46.9360	12.8174	-3.3453	18.5010	-9.9811	44.4900	3	147	-120	100584	0.62 
511.393	-0.4224	-0.0396	0.7124	1.5869	62.8052	8.0566	-2.9828	24.7192	-10.0305	44.4900	19	143	-118	100584	0.62 
511.503	-0.3149	-0.0376	0.5645	5.4932	72.4487	7.5684	-2.7081	31.9098	-10.3436	44.4800	31	144	-119	100584	0.62 
511.597	-0.6128	0.0327	0.8730	11.2915	43.8232	20.9351	-1.0272	38.4521	-10.3436	44.4800	48	137	-116	100584	0.62 
511.721	-0.4478	0.0620	0.7334	10.0708	-14.2822	34.1187	1.3129	39.2651	-8.5803	44.4800	58	132	-117	100585	0.62 
511.785	-0.4478	0.0190	0.5601	14.0381	-34.4849	25.3906	4.5428	36.5515	-5.3448	44.4700	63	129	-121	100585	0.62 
511.925	-1.1382	0.0386	1.5947	15.5029	-84.1064	1.5869	6.7511	32.0691	-3.9990	44.4800	65	124	-123	100586	0.62 
512.034	-0.6865	0.2148	1.9233	-15.0146	-56.4575	1.7090	6.8555	25.5817	-4.1034	44.4800	51	117	-131	100587	0.62 
512.128	0.0835	0.0728	1.0322	-19.8364	-67.0166	-11.9019	4.7845	18.3801	-3.9935	44.4600	36	121	-136	100587	0.62 
512.237	-0.2954	0.0444	0.7539	-18.0054	-62.1948	-16.4185	2.3785	10.7281	-5.4987	44.4400	17	124	-130	100588	0.62 
512.284	-0.2114	-0.0132	0.8726	-15.5640	-20.1416	-3.1128	0.5988	6.7401	-6.8500	44.4500	2	131	-127	100588	0.61 
512.410	-0.1196	-0.0024	1.2036	-10.0098	-13.9771	2.6245	-0.6042	5.8502	-6.8719	44.4500	-5	135	-121	100589	0.61 
512.518	0.0015	-0.0972	1.1260	-7.7515	-12.2681	6.5308	-1.5491	4.1418	-6.1688	44.4400	-7	137	-117	100589	0.61 
512.597	-0.0356	-0.0796	1.0273	1.5259	-13.3667	4.2114	-1.8951	2.8674	-5.2899	44.4100	-8	136	-115	100590	0.61 
512.722	-0.0488	-0.0117	0.9697	3.0518	13.3057	-0.1831	-1.6534	2.5763	-5.2130	44.4200	-10	135	-115	100590	0.61 
512.815	-0.0483	-0.0454	1.0181	6.6528	30.8838	5.7983	-1.1151	4.8175	-4.9988	44.4200	-5	135	-115	100590	0.61 
512.894	-0.0415	-0.0078	1.0181	13.7939	49.2554	19.3481	0.1813	8.5034	-3.6310	44.4000	3	133	-122	100590	0.61 
513.018	-0.1279	0.0313	0.9907	25.7568	84.7168	24.5361	2.4335	14.7162	-0.9613	44.4000	19	128	-127	100590	0.61 
513.175	-0.3555	0.0781	1.1050	31.9824	122.8638	4.0894	6.4380	24.6478	1.5710	44.3900	43	119	-130	100590	0.61 
513.190	-1.1479	0.2969	1.2690	8.1177	63.4766	-18.6157	8.9044	36.2439	1.9391	44.3800	70	111	-122	100590	0.61 
513.331	-0.9468	0.1597	0.9272	-7.5073	-6.3477	-34.1187	7.5861	39.7046	-1.0382	44.3800	85	116	-117	100590	0.61 
513.394	-0.6079	0.1143	0.8789	-8.1787	-60.8521	-20.4468	4.4165	36.7712	-4.7791	44.3600	75	122	-120	100590	0.61 
513.534	-0.3638	0.0420	0.7148	-11.3525	-58.1665	-14.4043	2.0929	30.5035	-6.7511	44.3400	56	128	-127	100590	0.61 
513.613	-0.1904	0.0332	0.5015	-5.6763	-76.2939	-25.2075	0.6812	23.7689	-8.4045	44.3200	35	134	-132	100589	0.61 
513.737	-0.3311	0.0186	0.6108	-4.5166	-72.9370	-10.0098	-0.5054	16.8475	-10.8215	44.3300	16	134	-134	100589	0.61 
513.831	-0.3530	0.1074	0.8750	-6.5918	-28.5034	0.7324	-1.1975	11.8817	-11.8433	44.2900	0	135	-133	100589	0.61 
513.925	-0.0220	0.0283	0.9922	5.9814	-31.6162	8.4229	-1.1920	7.9761	-10.5414	44.3200	-11	141	-133	100588	0.62 
514.034	-0.3120	0.0215	0.9287	-7.3242	-6.2256	15.3809	-1.0931	7.1741	-8.9923	44.3200	-12	141	-128	100587	0.62 
514.128	-0.2056	-0.1177	1.0278	-2.8687	0.0610	-8.1177	-1.8951	7.0862	-8.9209	44.3200	-12	142	-126	100587	0.62 
514.222	-0.1631	0.0122	1.0352	3.7231	3.5400	-12.3901	-1.9611	7.2180	-10.8215	44.3200	-14	144	-124	100586	0.62 
514.316	-0.2197	-0.0283	1.0278	-5.2490	4.8218	13.9771	-1.9501	7.9541	-10.7721	44.3200	-20	142	-126	100585	0.62 
514.425	-0.1602	-0.0981	1.0181	-4.0283	-1.0986	13.3667	-2.3621	8.3331	-9.3823	44.3300	-11	143	-123	100585	0.62 
514.504	-0.1431	-0.0449	1.0239	2.5024	3.8452	1.5259	-2.5104	8.5693	-8.8824	44.3300	-8	140	-120	100585	0.62 
514.629	-0.1772	-0.0244	1.0522	-1.5869	2.8076	5.9204	-2.2247	9.0637	-8.4430	44.3400	-7	143	-120	100584	0.62 
514.784	-0.1660	-0.0391	1.0225	-4.8218	-1.2817	9.4604	-2.3950	9.0747	-7.7344	44.3500	-1	147	-119	100584	0.62 
514.831	-0.1743	-0.0669	1.0405	0.8545	0.0000	0.3052	-2.5159	8.9044	-7.1136	44.3500	-3	144	-122	100584	0.62 
514.941	-0.1445	-0.0381	1.0176	1.4038	-1.0376	-3.7231	-2.4005	8.7231	-7.4158	44.3800	1	144	-119	100584	0.62 
515.004	-0.1650	-0.0400	1.0293	-0.4272	1.0376	-8.1787	-2.4664	8.6902	-8.1079	44.3600	-3	145	-124	100584	0.62 
515.128	-0.1538	-0.0552	1.0215	-1.5259	2.3804	-9.5215	-2.7356	8.8934	-9.1022	44.3900	-10	142	-122	100584	0.62 
515.223	-0.1768	-0.0430	1.0166	-1.4648	0.4272	-5.6763	-3.0762	9.1461	-10.0635	44.3700	-7	145	-120	100584	0.62 
515.331	-0.1694	-0.0352	1.0381	-1.0376	1.9531	-6.8970	-3.2520	9.2999	-10.7886	44.3800	-8	144	-123	100584	0.62 
515.426	-0.1807	-0.0845	1.0215	-4.5776	2.3193	-9.5825	-3.6749	9.4482	-11.5192	44.3800	-5	144	-119	100585	0.62 
515.534	-0.1831	-0.1001	1.0078	-2.9297	2.6855	-19.7754	-4.4824	9.6295	-13.1396	44.3800	-12	142	-120	100585	0.62 
515.623	-0.1958	-0.0698	1.0088	-0.4272	4.8828	-23.4985	-5.0647	9.8492	-15.6061	44.3900	-19	142	-120	100585	0.62 
515.723	-0.2251	-0.0200	1.0156	-0.1221	7.0190	-4.4556	-5.1746	10.5414	-17.2705	44.3900	-20	143	-122	100585	0.62 
515.833	-0.2646	-0.0859	0.9858	1.8311	13.4277	7.8735	-4.8944	11.6730	-17.1112	44.3900	-22	138	-123	100585	0.62 
515.926	-0.3232	-0.1113	0.9707	5.5542	22.6440	10.3149	-4.3945	13.7604	-16.5839	44.3900	-17	139	-121	100585	0.62 
516.021	-0.3481	-0.1035	0.8296	3.4180	40.9546	10.7422	-3.7573	17.1057	-16.0840	44.4200	-10	142	-123	100585	0.62 
516.145	-0.3535	-0.0674	0.6826	1.5259	63.2935	7.9346	-3.4003	22.8186	-15.8203	44.4100	0	139	-125	100584	0.62 
516.239	-0.4233	-0.1094	0.7041	8.4229	56.3965	-8.1787	-2.6697	28.9380	-15.1227	44.4200	19	139	-125	100584	0.62 
516.333	-0.4141	0.0156	0.6265	18.2495	39.0015	-0.3052	-0.9888	32.9974	-14.8041	44.4100	30	138	-125	100584	0.62 
516.442	-0.3511	0.0537	0.6240	20.0806	20.8740	-4.3945	0.7526	35.7330	-14.4690	44.4100	36	130	-128	100585	0.62 
516.551	-0.0884	0.0747	0.5122	14.5264	-26.5503	18.0664	3.9990	34.7388	-12.8156	44.4200	45	128	-133	100585	0.62 
516.661	-0.9854	0.2695	1.5317	19.5313	-84.0454	25.8179	6.9983	28.2294	-10.4535	44.4200	37	123	-134	100586	0.62 
516.771	-0.0664	0.2354	1.7188	-12.8174	-67.5049	14.2822	7.5916	22.0276	-9.5801	44.4100	27	113	-139	100586	0.62 
516.864	0.1113	0.0918	0.8779	-21.6675	-83.7402	-2.1973	6.0480	13.3044	-7.8882	44.3800	17	118	-143	100587	0.62 
516.942	-0.2656	0.0449	0.7417	-16.1133	-68.4204	-3.6011	4.1748	4.7186	-8.7286	44.3700	-3	123	-134	100587	0.62 
517.036	-0.1680	-0.0010	0.9434	-15.6250	-46.2646	-8.4839	2.4829	0.1208	-10.4974	44.3500	-24	129	-130	100587	0.62 
517.145	0.2573	-0.0171	0.9688	-8.3008	-1.8311	-8.2397	1.1646	-2.7631	-11.3928	44.3400	-33	128	-126	100587	0.62 
517.240	0.1978	-0.0425	1.2388	-1.2207	-7.3853	5.6763	1.0162	-2.2522	-11.0083	44.3500	-34	133	-126	100587	0.62 
517.364	0.1094	0.0322	1.0161	-1.7090	-3.7842	2.9907	0.7471	-3.5486	-10.4425	44.3400	-37	133	-123	100588	0.62 
517.473	-0.0127	0.0186	0.9443	1.1597	0.1221	0.6714	0.7581	-3.2739	-10.5139	44.3500	-38	131	-123	100587	0.62 
517.551	-0.0029	0.0269	0.9927	-1.5259	9.3994	-0.6104	0.7196	-2.4939	-10.8435	44.3200	-36	130	-121	100588	0.61 
517.630	0.0327	-0.0029	1.0771	-0.9766	9.3994	1.5259	0.5328	-1.4667	-10.9094	44.3200	-36	132	-123	100588	0.61 
517.739	0.0269	0.0063	1.0371	-0.1831	0.5493	1.2207	0.4944	-1.1041	-11.0028	44.3000	-35	130	-123	100588	0.61 
517.849	0.0015	0.0063	1.0083	0.9766	-0.4883	0.1831	0.5054	-1.1316	-11.1292	44.3100	-31	131	-121	100589	0.61 
517.958	0.0049	0.0142	1.0317	0.6104	2.8687	0.3662	0.6042	-0.8514	-11.2555	44.3100	-33	130	-118	100589	0.61 
518.036	-0.0078	0.0239	1.0601	0.9155	2.9907	2.1973	0.7086	-0.4449	-11.3104	44.3000	-33	131	-123	100589	0.61 
518.130	-0.0005	0.0176	1.0381	0.7324	2.0752	1.4038	0.7471	-0.1428	-11.2720	44.2900	-30	132	-124	100589	0.61 
518.270	-0.0171	0.0161	1.0381	0.7324	4.6387	1.5259	0.8459	0.3021	-11.1676	44.3000	-28	132	-124	100588	0.61 
518.364	-0.0508	0.0181	1.0454	1.3428	4.7607	0.7324	0.9613	0.8899	-11.1511	44.3000	-29	128	-127	100588	0.61 
518.443	-0.0752	0.0366	1.0605	1.5259	3.5400	-0.7324	1.1096	1.5820	-11.1786	44.3200	-22	131	-126	100588	0.61 
518.567	0.0093	0.0249	0.9639	-1.7090	33.9966	6.3477	1.2524	2.7136	-10.5688	44.3000	-27	129	-127	100588	0.61 
518.661	0.0361	0.0205	1.0127	6.2256	62.9272	12.0850	1.4722	7.0038	-9.4867	44.3100	-14	129	-132	100588	0.61 
518.739	-0.0796	0.0049	1.1108	20.8130	110.4736	17.7002	3.2025	15.1501	-7.0258	44.3100	4	124	-131	100589	0.61 
518.833	-0.4438	0.0854	1.1436	11.3525	117.2485	10.2539	6.0095	25.9882	-4.3286	44.3000	35	121	-130	100589	0.61 
518.973	-1.0332	0.0894	1.1328	13.4277	68.1763	12.4512	8.2837	36.7053	-2.9608	44.2900	60	117	-125	100589	0.61 
519.067	-0.9756	0.1357	0.8901	-9.4604	27.1606	-28.5645	7.9211	41.7920	-3.8947	44.2700	80	113	-118	100589	0.61 
519.177	-0.6636	0.0396	0.8013	-14.8315	-43.0298	-8.1787	4.9054	41.0724	-6.5204	44.2600	80	124	-119	100589	0.61 
519.286	-0.5010	0.0845	0.7485	-11.5967	-64.9414	6.3477	3.0267	36.0132	-7.2839	44.2500	66	126	-119	100588	0.61 
519.380	-0.2954	0.0444	0.5537	-26.9165	-53.4668	32.8369	2.5159	29.6906	-4.9274	44.2500	55	128	-130	100588	0.61 
519.489	-0.3052	0.0361	0.5498	-22.8271	-60.5469	20.9961	0.9283	23.7360	-4.1803	44.2500	47	135	-128	100588	0.61 
519.584	-0.3462	-0.0547	0.7197	-16.2964	-55.4810	21.6675	0.0000	17.9132	-2.1808	44.2400	38	138	-126	100588	0.62 
519.692	-0.1934	0.0039	0.8721	-7.6294	-61.5234	-4.3335	-1.0876	12.4750	-1.4117	44.2600	32	139	-124	100587	0.62 
519.758	-0.3374	-0.1147	0.9971	-3.4790	-14.7095	-15.1367	-1.8512	9.9536	-1.7413	44.2600	23	146	-122	100586	0.62 
519.856	-0.2329	-0.0566	1.0059	4.6997	2.8687	-29.6631	-2.2028	9.6295	-4.6088	44.2600	15	146	-119	100585	0.62 
519.965	-0.1885	-0.0073	1.0532	2.8687	13.5498	-20.2026	-2.1643	10.5139	-7.3444	44.2600	5	143	-120	100585	0.62 
520.075	-0.2417	-0.0337	1.0195	2.3193	3.9673	-5.9204	-2.0709	11.3599	-8.9099	44.2500	2	142	-121	100584	0.62 
520.184	-0.2026	-0.0376	1.0166	0.6714	-2.8076	-6.0425	-2.1698	10.9589	-9.7614	44.2600	-1	141	-123	100584	0.62 
520.263	-0.1816	-0.0249	1.0132	1.0376	-5.2490	1.0986	-2.1259	10.3821	-10.1074	44.2800	-7	143	-125	100584	0.62 
520.419	-0.1836	-0.0679	1.0171	-3.8452	-4.2725	4.4556	-2.3236	10.0525	-9.7119	44.2900	-9	142	-126	100583	0.62 
520.481	-0.2065	-0.0532	1.0313	-3.9063	-2.3193	3.7231	-2.6862	9.7394	-9.6625	44.3000	-4	139	-120	100583	0.62 
520.590	-0.1641	-0.0591	1.0063	-3.5400	-1.7090	0.1831	-3.0103	9.4812	-9.4922	44.2800	-6	143	-121	100583	0.62 
520.654	-0.1606	-0.0527	1.0205	-2.4414	0.7324	-7.2632	-3.3563	9.3988	-10.0305	44.3100	-8	144	-122	100583	0.62 
520.797	-0.1606	-0.0352	1.0220	-0.5493	1.5869	-8.6670	-3.6035	9.4757	-10.8984	44.3200	-7	142	-118	100583	0.62 
520.891	-0.1533	-0.0557	1.0063	-0.1831	6.7749	-7.2632	-3.7244	9.6954	-11.6016	44.3100	-10	143	-120	100584	0.62 
521.000	-0.2222	-0.0903	1.0088	-1.4038	8.7891	1.8921	-3.7628	10.6238	-12.1344	44.3100	-7	142	-119	100584	0.62 
521.079	-0.2217	-0.1016	1.0347	-1.8311	7.6294	4.8218	-3.8892	11.2775	-11.8652	44.3100	-6	143	-123	100584	0.62 
521.235	-0.2017	-0.0518	1.0156	0.6714	-0.6104	-5.9204	-3.9111	11.3214	-12.1564	44.3200	-6	141	-122	100584	0.62 
521.329	-0.2148	-0.0801	1.0112	0.4883	0.4272	-0.2441	-3.8727	11.2610	-12.3926	44.3000	-10	141	-120	100584	0.62 
521.407	-0.3345	-0.0820	1.0161	1.9531	4.0894	-2.2583	-3.8342	11.5906	-12.8760	44.3400	-11	142	-120	100584	0.62 
521.470	-0.3008	-0.0400	0.9814	2.5635	11.2915	-4.8828	-3.6694	12.2662	-13.7109	44.3400	-9	139	-124	100583	0.62 
521.567	-0.2969	-0.1021	0.8950	4.3335	11.9629	2.0752	-3.4277	13.9471	-14.2328	44.3400	-7	141	-124	100583	0.62 
521.722	-0.2700	-0.0767	0.7803	0.2441	33.8135	2.0752	-3.2684	17.0288	-14.6613	44.3400	-1	141	-130	100583	0.62 
521.801	-0.1973	0.0107	0.5864	-6.0425	41.0767	8.1177	-3.4717	21.7969	-15.7269	44.3200	2	139	-129	100584	0.62 
521.863	-0.2881	0.0156	0.5869	-11.7798	73.3643	0.5493	-4.7076	28.1854	-16.1938	44.3400	14	139	-126	100584	0.62 
522.051	-0.0542	-0.0020	0.3472	2.8076	47.0581	7.2021	-5.0867	32.8601	-16.3971	44.3500	26	142	-124	100584	0.62 
522.113	-0.3315	0.0977	0.5859	12.4512	20.1416	35.5225	-2.3456	36.6614	-13.9417	44.3500	42	138	-116	100584	0.62 
522.207	-0.3311	0.0146	0.5093	21.5454	-38.6353	30.9448	1.5765	36.0022	-9.8328	44.3400	53	130	-119	100585	0.62 
522.301	-1.3594	0.2036	1.8594	15.1978	-109.0088	33.0200	5.8612	30.0366	-6.1578	44.3500	51	125	-124	100586	0.62 
522.426	-0.4023	0.2241	1.9443	-0.1221	-75.6836	21.4844	7.4103	21.0059	-4.8120	44.3400	39	119	-130	100586	0.62 
522.504	0.2271	0.0649	0.9375	-16.9067	-71.0449	-5.9814	6.2347	13.0188	-3.9001	44.3400	24	118	-138	100587	0.62 
522.582	-0.2007	0.0322	0.7783	-13.4277	-59.3262	-16.2354	4.7791	4.7955	-4.6857	44.3200	7	124	-134	100587	0.62 
522.676	-0.1670	0.0215	0.9316	-8.3618	-23.9258	-14.7705	3.4607	0.9778	-6.9434	44.3100	-11	128	-132	100588	0.61 
522.863	-0.0430	0.0352	1.2100	3.2349	2.0752	2.6855	3.0981	0.4614	-7.5201	44.2700	-19	130	-126	100588	0.61 
522.910	0.0854	0.0537	1.2090	-4.8218	0.0000	6.4697	2.8839	0.1208	-6.8500	44.3000	-18	127	-125	100589	0.61 
522.973	0.0176	0.0483	1.0000	-1.6479	-7.2021	0.0610	2.5763	-0.7690	-6.4874	44.2800	-18	130	-122	100589	0.61 
523.098	-0.0469	0.0161	0.9771	-1.6479	5.1880	-1.2207	2.3291	-0.5054	-6.6193	44.2700	-19	129	-124	100589	0.61 
523.192	-0.0190	0.0303	1.0190	-1.4038	15.0146	0.1221	2.2028	0.5658	-6.8060	44.2600	-17	128	-123	100589	0.61 
523.301	-0.0649	0.0391	1.1011	-0.4272	11.3525	1.3428	2.1588	2.0160	-6.7841	44.2700	-16	127	-128	100589	0.61 
523.379	-0.0615	0.0522	1.0176	-1.0986	6.2256	1.5259	2.0984	2.7081	-6.7566	44.2600	-13	127	-124	100589	0.61 
523.504	-0.0757	0.0337	1.0156	-1.6479	11.5356	2.5635	1.9391	3.7354	-6.6907	44.2600	-11	128	-122	100589	0.61 
523.598	-0.0913	0.0591	1.0308	-3.1128	22.1558	4.0283	1.7084	5.3448	-6.3721	44.2400	-8	132	-126	100589	0.61 
523.676	-0.1143	0.0083	1.0503	2.3193	35.7056	3.9673	1.6260	8.1738	-5.8942	44.2500	0	130	-122	100589	0.61 
523.801	-0.1362	0.0010	1.0259	7.9346	46.4478	10.6812	2.2852	12.1014	-4.8340	44.2500	8	128	-125	100588	0.61 
523.957	-0.3452	0.0459	1.0874	7.3853	41.5039	5.5542	3.3728	16.7267	-3.7738	44.2600	18	128	-129	100588	0.61 
524.004	-0.4175	0.0967	0.9277	7.8125	17.2119	6.2256	4.3341	19.4019	-3.5596	44.2600	29	125	-130	100588	0.61 
524.129	-0.3955	0.0864	0.7944	2.8076	12.7563	10.4980	5.2130	20.9839	-3.0267	44.2500	34	123	-130	100588	0.61 
524.238	-0.3037	0.0947	0.8091	2.9297	31.8604	8.8501	5.9052	22.6758	-2.2961	44.2500	39	122	-128	100588	0.61 
524.301	-0.1763	0.0957	1.1338	25.1465	101.5625	10.5591	8.2123	28.1799	0.0879	44.2300	53	118	-129	100589	0.61 
524.395	-1.1279	0.4561	1.3096	5.7373	104.3091	-13.4888	11.0303	38.8257	2.6257	44.2300	77	111	-119	100589	0.61 
524.504	-1.0425	0.2373	0.8369	-12.0850	32.3486	-5.3101	11.7664	45.7141	3.6694	44.2200	96	111	-110	100589	0.61 
524.614	-0.9380	0.0698	0.8579	-17.2119	-10.0708	-32.5928	7.4982	46.7029	0.0879	44.2200	99	118	-101	100589	0.61 
524.723	-0.6577	0.0303	0.8169	-8.0566	-35.8276	-26.5503	3.1641	43.9398	-3.7628	44.2100	91	125	-106	100589	0.61 
524.832	-0.4385	0.0186	0.6387	-6.7139	-69.0918	6.1035	2.1368	37.4744	-4.3945	44.1900	75	131	-113	100589	0.61 
524.926	-0.4570	-0.0015	0.6636	-8.9111	-61.7676	-15.6250	1.0986	31.9427	-4.3451	44.1900	64	132	-117	100588	0.61 
525.005	-0.4604	-0.0015	0.6685	-7.9956	-69.3359	-13.3667	-0.5823	24.8456	-5.4272	44.1900	45	139	-121	100587	0.62 
525.129	-0.3940	-0.0962	0.8315	-4.2114	-68.7256	-12.6343	-1.6479	17.9846	-6.3226	44.1700	28	141	-124	100587	0.62 
525.223	-0.2915	-0.0234	1.0200	0.4272	-50.9033	-19.2871	-2.0490	12.1948	-7.9321	44.1700	12	143	-123	100586	0.62 
525.332	-0.3960	-0.1216	1.0425	-1.6479	-18.9819	-25.1465	-2.5104	8.7671	-10.1074	44.1700	-4	140	-121	100585	0.62 
525.426	-0.1040	-0.0386	1.0039	0.6104	-7.2021	-33.3862	-3.1036	7.1741	-13.6505	44.1800	-15	143	-124	100585	0.62 
525.535	-0.1108	-0.0005	0.9912	-8.2397	-1.1597	17.2119	-3.3508	6.8390	-14.7601	44.1700	-27	140	-121	100584	0.62 
525.629	-0.1504	-0.1011	1.0195	-3.7231	-2.1973	15.1978	-3.9166	7.2070	-12.9584	44.1800	-20	145	-120	100583	0.62 
525.738	-0.1016	-0.0918	1.0352	-2.9297	-6.5918	12.3901	-4.1638	6.8170	-11.6400	44.1900	-18	143	-116	100583	0.62 
525.832	-0.1221	-0.1133	1.0063	0.2441	-2.6855	-0.4272	-4.3671	6.4380	-11.2061	44.1900	-19	143	-118	100583	0.62 
525.926	-0.0908	-0.0625	1.0303	0.3052	1.5869	0.7935	-4.2792	6.4655	-11.4148	44.2000	-16	147	-115	100583	0.62