StartTime: 2017-07-14 13:50:30.215
Time(s)	ax(g)	ay(g)	az(g)	wx(deg/s)	wy(deg/s)	wz(deg/s)	AngleX(deg)	AngleY(deg)	AngleZ(deg)	T(°)	hx	hy	hz	Pressure(Pa)	Altitude(m) 
426.325	-0.2339	-0.0742	1.0132	-0.6104	-1.0376	1.1597	-4.2847	12.5354	172.2052	45.2100	63	-152	-170	100567	0.63 
426.419	-0.2271	-0.0752	1.0137	-0.4883	-1.0376	-0.4883	-4.3286	12.4146	172.1997	45.2100	59	-153	-170	100567	0.63 
426.513	-0.2231	-0.0757	1.0156	0.0610	-1.0376	0.1831	-4.3451	12.3212	172.1613	45.2200	61	-152	-171	100567	0.63 
426.622	-0.2163	-0.1074	1.0137	-0.2441	-0.2441	-2.5024	-4.4055	12.2058	172.0239	45.2100	59	-154	-167	100567	0.63 
426.732	-0.1763	-0.1270	1.0220	0.8545	-6.8970	-1.8311	-4.6143	11.8103	171.6504	45.2100	63	-153	-169	100567	0.63 
426.826	-0.1743	-0.1270	1.0176	4.5166	-7.8735	-1.5869	-4.5099	10.7336	171.3208	45.2300	62	-155	-169	100566	0.63 
426.919	-0.1924	-0.0767	0.9917	2.5024	-6.5918	7.8125	-4.1748	10.0250	171.3922	45.2300	58	-157	-167	100566	0.63 
427.013	-0.2407	-0.0527	1.0288	5.2490	-1.4038	12.6343	-3.6859	9.9207	172.3535	45.2300	53	-155	-166	100566	0.63 
427.138	-0.1187	0.0791	1.0532	7.0190	2.4414	13.7939	-2.5269	10.0854	173.7213	45.2200	50	-159	-165	100566	0.63 
427.247	-0.0938	0.0303	1.0845	12.0850	7.2021	-1.9531	-1.1975	10.0690	173.8367	45.2300	47	-164	-162	100566	0.63 
427.341	-0.1235	0.0884	1.0059	5.4321	9.3994	-3.7231	0.0330	10.6403	173.3862	45.2400	51	-168	-154	100566	0.63 
427.435	-0.1470	0.0288	0.8462	-10.2539	1.7700	-10.3760	-0.1099	11.0962	172.5787	45.2300	51	-169	-157	100566	0.63 
427.529	-0.0537	0.1455	0.7886	-7.5684	-0.0610	-8.6060	-0.9393	10.9039	170.8264	45.2300	55	-169	-157	100566	0.63 
427.639	-0.0508	0.2334	0.9282	-9.7046	-21.9727	4.7607	-1.4667	9.4757	170.3156	45.2400	49	-162	-166	100566	0.63 
427.748	-0.6084	-0.2837	1.4492	5.5542	26.9775	2.3804	-1.7853	9.2670	172.3315	45.2300	40	-163	-163	100566	0.63 
427.857	0.0029	0.1172	0.8906	-4.3945	-39.9170	30.7617	-0.7526	8.4485	172.7985	45.2300	36	-167	-163	100567	0.63 
427.951	-0.2759	-0.1216	0.7466	-13.9160	27.4658	-0.0610	-2.0160	9.0747	173.1226	45.2100	31	-164	-163	100567	0.63 
428.076	-0.1255	-0.2139	0.9771	12.8174	2.9907	-12.2681	-2.9169	10.8655	173.1335	45.2300	35	-162	-162	100567	0.63 
428.154	-0.2007	-0.0483	0.6387	8.6060	6.3477	-7.3242	-2.0929	10.3436	172.2821	45.2000	39	-164	-157	100567	0.63 
428.249	0.0542	-0.1182	0.6621	11.0474	-26.0010	1.4038	-1.3129	9.3604	171.2659	45.2000	40	-173	-157	100568	0.63 
428.373	-0.0103	0.3633	1.3315	7.9346	33.8135	-85.9985	-1.5930	8.8550	167.8217	45.2000	41	-175	-154	100568	0.63 
428.451	-0.2500	0.1899	1.2485	9.8877	48.9502	5.5542	-1.2415	9.9866	163.1195	45.2200	63	-175	-151	100568	0.63 
428.561	-0.2197	0.2739	0.8223	8.3618	29.8462	4.5166	0.2802	12.6123	162.7899	45.2300	71	-174	-143	100568	0.63 
428.655	-0.2104	0.0596	0.9165	-21.1182	-16.6016	15.9302	-0.3406	13.6230	164.1412	45.2100	80	-177	-142	100568	0.63 
428.779	-0.2075	0.0781	0.7134	-22.3389	-16.4185	29.4189	-1.7578	12.0850	166.3055	45.2100	65	-175	-147	100568	0.63 
428.858	-0.1489	0.0068	0.9790	-15.8691	-23.0103	36.6821	-2.6642	10.8435	171.2604	45.2000	46	-171	-158	100569	0.63 
428.982	-0.5488	-0.3979	1.7417	9.7046	27.2217	9.6436	-2.3346	10.3546	173.4302	45.2000	28	-169	-157	100569	0.63 
429.092	0.0054	-0.1367	0.9268	-9.2773	-4.8828	7.5073	-1.9501	10.3821	175.1276	45.1900	21	-178	-158	100569	0.63 
429.170	-0.1299	-0.2402	0.8267	-8.1787	13.4888	8.4839	-3.2629	12.1509	174.9463	45.2100	26	-174	-155	100569	0.63 
429.295	-0.1196	-0.0435	0.6631	21.4844	-31.0669	-6.7139	-3.0103	12.2882	174.1498	45.1900	31	-177	-153	100570	0.63 
429.389	-0.1714	-0.2168	1.0117	20.2637	-7.2632	-19.7754	-2.2632	11.3159	172.6996	45.2000	35	-179	-148	100570	0.63 
429.467	-0.4717	0.2002	1.3730	-6.0425	-1.3428	30.2124	-1.1975	10.3217	172.7380	45.2000	35	-184	-141	100570	0.63 
429.592	-0.0293	0.2163	1.1289	10.6201	-34.5459	-6.0425	-1.5381	9.5306	173.5291	45.1900	29	-180	-144	100570	0.63 
429.687	-0.1392	0.0923	0.7500	4.3945	6.1035	-2.2583	-0.6372	8.8000	175.3967	45.1800	23	-179	-140	100570	0.63 
429.782	-0.2026	0.0562	0.5991	-10.5591	0.6714	-1.2817	-0.7745	9.9097	176.0779	45.1800	24	-180	-139	100571	0.63 
429.891	-0.2705	0.2104	1.1006	-20.2026	15.5640	0.7935	-2.0325	9.9646	175.8527	45.1800	24	-182	-140	100571	0.63 
430.000	-0.2393	-0.2065	1.1265	5.5542	5.2490	-2.8687	-2.9333	8.9978	177.0721	45.1800	19	-178	-144	100571	0.63 
430.109	-0.9390	0.0010	2.2197	21.0571	11.5356	-29.7852	-2.8125	11.6510	175.4462	45.1700	29	-173	-144	100572	0.63 
430.203	-0.2871	0.0264	0.8853	-1.8921	33.6914	-24.1699	-3.0103	10.7391	174.1113	45.1600	36	-177	-143	100572	0.63 
430.282	-0.2549	-0.2241	0.8481	5.5542	14.7095	0.9766	-3.9276	12.6508	174.6332	45.1500	44	-175	-137	100572	0.63 
430.414	-0.0557	-0.1294	0.3506	21.1182	6.2866	-0.3052	-2.5928	10.0140	174.9683	45.1500	43	-177	-137	100573	0.63 
430.493	-0.0723	0.1812	1.0024	6.1035	-6.5918	-6.8359	-1.4832	11.1621	173.5675	45.1400	49	-179	-126	100573	0.63 
430.617	-0.6553	0.8174	2.4092	6.4697	49.2554	-48.0347	-1.4117	11.3763	171.5680	45.1400	53	-179	-121	100574	0.63 
430.711	-0.1440	0.0059	1.0239	-6.2256	34.4238	39.2456	-0.9613	10.5853	170.6396	45.1500	61	-179	-119	100574	0.63 
430.836	-0.3066	0.1494	0.9224	-3.2349	18.1274	-10.1318	-0.9613	12.7551	170.3156	45.1500	64	-178	-118	100574	0.63 
430.930	-0.0488	0.0854	0.6055	-17.7612	-24.7192	4.9438	-1.8018	11.7114	169.6619	45.1500	70	-174	-119	100574	0.63 
431.008	-0.1528	0.0781	0.8389	-26.8555	-8.3618	53.1006	-2.5598	10.9094	172.1722	45.1400	61	-174	-124	100574	0.63 
431.133	-0.4399	-0.1973	1.2666	-0.3662	-0.5493	28.1372	-3.0103	9.9481	175.4297	45.1600	50	-170	-133	100575	0.63 
431.227	-0.1768	-0.0010	1.2656	3.4790	-40.4663	4.3945	-2.7795	10.6512	176.5283	45.1300	42	-168	-131	100575	0.63 
431.305	-0.3149	-0.0273	0.8403	-9.8267	18.6768	15.7471	-2.9114	10.2502	175.4462	45.1200	44	-168	-133	100575	0.63 
431.477	-0.2773	-0.1904	0.8472	5.6763	8.9722	1.5869	-3.8232	11.8488	176.8909	45.1400	42	-167	-133	100576	0.62 
431.539	-0.1299	-0.2280	0.8589	15.0757	7.5684	-11.2305	-3.0981	10.0964	177.2864	45.1300	38	-172	-127	100576	0.62 
431.665	-0.5269	0.0581	1.4229	-6.9580	22.7051	-5.1270	-2.4390	9.3439	175.5121	45.1200	41	-171	-120	100577	0.62 
431.743	-0.1802	0.4775	1.3979	16.6626	-27.9541	-54.9927	-2.0764	10.5359	171.2329	45.1200	51	-170	-117	100577	0.62 
431.836	-0.2671	-0.0610	0.6860	11.9629	21.7896	-19.4702	-1.1206	10.5634	170.7715	45.1200	60	-171	-116	100578	0.62 
431.930	-0.2651	0.1626	0.8896	-14.8315	24.9023	-10.2539	-0.6482	13.6395	169.5465	45.1000	68	-174	-111	100578	0.62 
432.055	-0.0068	-0.0098	0.5415	-26.3672	-18.4937	18.9819	-1.8182	12.2223	170.6287	45.1000	71	-169	-113	100578	0.62 
432.149	-0.0181	0.1382	0.7378	-16.7847	-32.7148	40.2832	-2.7905	11.2665	173.3533	45.1100	61	-165	-119	100578	0.62 
432.258	-0.2798	-0.2231	1.5332	-1.7090	-26.6113	38.2690	-2.8949	10.9644	176.4185	45.0900	44	-163	-122	100579	0.62 
432.336	0.0083	0.0332	0.9277	-2.6245	8.1177	-30.9448	-2.9663	8.7506	175.1385	45.1000	40	-160	-125	100579	0.62 
432.464	-0.1460	-0.1709	0.7031	-9.3384	6.7139	15.5029	-3.6859	10.2228	175.4517	45.1100	43	-163	-125	100580	0.62 
432.543	-0.0166	-0.0840	0.4639	25.5127	-42.3584	-11.7188	-3.4717	9.1132	174.8584	45.0900	42	-162	-122	100580	0.62 
432.668	-0.0313	-0.0571	0.7876	24.4751	-17.5781	-41.0156	-2.4500	8.1354	171.5680	45.0900	47	-164	-117	100580	0.62 
432.777	-0.4648	-0.1250	1.5732	9.3994	-10.8032	-42.2363	-1.9446	7.8387	171.2714	45.1000	49	-165	-109	100580	0.62 
432.855	0.3682	0.0024	1.0942	-3.4790	-6.3477	34.3018	-1.6534	6.8170	170.1178	45.0900	54	-162	-105	100580	0.62 
432.965	-0.0864	0.1382	0.5923	4.8828	10.8643	-6.3477	-1.1591	7.9816	171.1285	45.1000	51	-165	-104	100581	0.62 
433.059	-0.0581	0.1230	0.7158	-20.4468	-5.0659	8.0566	-1.5930	9.1901	171.0352	45.0800	56	-164	-106	100581	0.62 
433.168	-0.2559	0.1338	0.9922	-24.4141	16.1743	24.5972	-3.1201	9.9207	170.8319	45.0700	55	-161	-108	100582	0.62 
433.277	-0.4927	-0.1948	1.3994	6.2866	12.4512	4.2725	-3.6475	10.3436	172.0624	45.0900	48	-157	-110	100582	0.62 
433.386	-0.2935	-0.1641	1.6240	9.0942	-49.5605	14.2212	-2.6642	10.4150	172.7930	45.0900	48	-156	-103	100582	0.62 
433.496	-0.3350	-0.0967	0.8931	-16.4185	26.5503	18.1274	-3.2300	9.9811	171.8207	45.0800	49	-155	-106	100582	0.62 
433.558	-0.3403	-0.2891	1.0054	14.9536	11.5356	-6.7749	-4.4220	12.0850	172.3535	45.0800	55	-152	-102	100582	0.62 
433.699	-0.3071	-0.0288	0.6143	19.2261	17.5171	17.2729	-2.1423	10.1788	172.6721	45.0900	54	-156	-99	100583	0.62 
433.793	-0.0562	0.1753	0.8672	15.8081	1.0376	2.0752	-0.7086	9.6021	171.9855	45.0900	50	-158	-91	100583	0.62 
433.883	-1.2393	0.3706	2.4927	-6.2866	22.2778	-41.0156	-0.5438	10.1019	170.1178	45.0900	56	-159	-85	100583	0.62 
434.039	-0.3647	-0.2109	0.9395	11.1694	19.9585	-27.1606	-0.2417	10.0031	168.3435	45.0700	61	-156	-79	100583	0.62 
434.102	-0.4009	0.2246	1.0249	-9.2773	36.8042	-10.4980	1.0272	12.9309	166.3770	45.0600	70	-160	-74	100583	0.62 
434.196	-0.2920	0.0400	1.0903	-18.3716	-11.2305	15.1367	-0.1208	13.2880	167.0746	45.0600	75	-154	-73	100584	0.62 
434.290	-0.1675	0.2012	0.7158	-16.1133	1.1597	25.0244	-1.0107	10.8655	167.7008	45.0600	73	-155	-80	100584	0.62 
434.384	-0.1172	0.0151	0.9556	-23.4985	-8.1787	36.1328	-2.0325	10.4755	171.3922	45.0600	59	-155	-84	100584	0.62 
434.508	-0.1616	0.0566	0.8320	-3.4790	-3.2959	28.7476	-2.4884	8.8989	173.7213	45.0600	49	-154	-85	100584	0.62 
434.587	-0.4492	-0.0732	1.7920	9.8267	-55.2979	14.4043	-2.2577	11.3818	175.6769	45.0300	45	-153	-84	100584	0.62 
434.711	-0.3750	-0.0405	0.8457	-15.2588	0.4272	12.6343	-2.8400	9.1571	173.4467	45.0400	45	-154	-83	100584	0.62 
434.790	-0.3530	-0.3682	1.0820	11.2915	12.1460	-29.4189	-4.4879	10.2777	172.8424	45.0200	47	-154	-86	100584	0.62 
434.915	-0.0762	0.0576	0.6143	12.2070	-7.9956	-5.0049	-2.7631	8.2397	169.9310	45.0300	57	-149	-79	100584	0.62 
435.008	-0.0693	-0.1646	0.8804	15.9302	-6.4087	-27.5879	-2.3730	7.6300	167.7228	45.0300	66	-152	-75	100585	0.62 
435.118	-0.3555	0.2676	1.1460	14.9536	-15.2588	-25.2075	-1.8787	7.1576	165.3387	45.0300	76	-151	-68	100585	0.62 
435.217	-0.0054	-0.0889	0.9521	11.5356	-5.4321	30.8838	-2.3840	6.9489	166.7999	45.0200	73	-150	-68	100585	0.62 
435.326	-0.2148	0.1162	0.8486	13.1226	33.8745	-11.2915	-1.0052	8.9429	167.3492	45.0100	76	-150	-67	100585	0.62 
435.420	-0.0771	0.1523	0.9961	-21.9116	-14.2822	34.4849	-0.8295	9.8108	166.9812	45.0100	82	-148	-65	100586	0.62 
435.514	-0.3589	-0.0327	1.1831	-16.3574	-2.8076	-2.0142	-2.9279	9.2120	166.7944	45.0000	74	-150	-70	100586	0.62 
435.623	-0.0083	-0.0669	0.7725	-3.4180	-5.5542	-0.0610	-3.8507	8.2617	167.1021	45.0200	75	-147	-76	100587	0.62 
435.779	-0.1797	-0.1260	1.0483	-2.6855	-2.9297	-7.3242	-4.1748	8.4979	165.6683	45.0000	75	-149	-74	100587	0.62 
435.857	-0.1914	-0.0479	1.0459	-4.3335	5.2490	1.5869	-4.6307	9.0363	164.7400	45.0000	78	-146	-79	100587	0.62 
435.951	-0.1797	-0.0923	1.0386	-2.2583	3.6621	-0.0610	-4.8560	9.4043	164.3884	45.0200	78	-146	-78	100588	0.62 
436.076	-0.2061	-0.0493	1.0254	-1.9531	3.0518	0.1831	-4.9713	9.7998	163.7787	45.0200	82	-143	-77	100588	0.61 
436.138	-0.2100	-0.0742	1.0249	-2.1362	1.4648	3.3569	-5.0482	10.1074	163.5590	45.0200	82	-144	-79	100588	0.62 
436.310	-0.2056	-0.0693	1.0254	-1.4648	0.1221	4.9438	-5.0702	10.2612	163.5205	45.0200	81	-145	-81	100588	0.61 
436.373	-0.2100	-0.0674	1.0195	-0.6714	1.4038	5.2490	-4.9988	10.3491	163.6963	45.0000	77	-145	-81	100588	0.61 
436.498	-0.1885	-0.0767	1.0137	-0.5493	0.0000	1.8311	-4.9493	10.4535	163.6908	45.0100	78	-147	-79	100588	0.61 
436.560	-0.1895	-0.0815	1.0205	-0.1831	0.5493	-0.7324	-4.9658	10.4865	163.3722	45.0100	81	-146	-79	100588	0.61 
436.654	-0.1934	-0.0781	1.0132	0.4883	1.4648	-5.8594	-4.9823	10.5359	162.6581	44.9900	80	-146	-77	100588	0.61