3
StartTime: 2017-07-12 15:39:00.902
Time(s)	ax(g)	ay(g)	az(g)	wx(deg/s)	wy(deg/s)	wz(deg/s)	AngleX(deg)	AngleY(deg)	AngleZ(deg)	T(°)	hx	hy	hz	Pressure(Pa)	Altitude(m) 
30.774	-1.3071	0.0366	1.8135	0.0000	0.4883	1.8311	1.9171	36.0187	74.2950	43.6900	-36	26	192	100730	0.50 
30.915	-1.3130	0.0391	1.8320	0.1831	-1.7090	2.1362	1.9885	36.0791	74.4598	43.7200	-36	27	194	100730	0.50 
30.993	-1.3208	0.0342	1.8320	0.0000	-0.0610	1.2207	2.1039	36.0077	74.7015	43.6900	-38	26	190	100730	0.50 
31.118	-1.3335	0.0352	1.8281	0.6104	0.9766	-0.1221	2.1039	36.0352	74.7345	43.6900	-35	28	192	100730	0.50 
31.196	-1.3228	0.0601	1.8291	1.8921	2.8076	-2.2583	2.0105	36.1176	74.4049	43.6800	-36	27	193	100730	0.50 
31.326	-1.3291	0.0469	1.8066	1.0986	6.2256	2.5024	2.2137	36.4362	74.5862	43.7000	-36	27	194	100730	0.50 
31.405	-1.3232	0.0615	1.8013	1.0376	5.7983	1.4038	2.4225	36.9910	74.8224	43.7000	-34	29	192	100730	0.50 
31.545	-1.4106	0.0688	1.7437	2.3804	14.1602	0.9155	2.6917	37.9358	75.1245	43.6900	-34	31	193	100730	0.50 
31.623	-1.2661	-0.0137	1.3687	9.2163	24.1699	-2.0752	3.0487	40.1825	75.0916	43.7000	-31	29	195	100730	0.50 
31.798	-1.3145	-0.0513	1.5625	-4.1504	62.8052	25.6348	5.5920	44.4342	79.0906	43.6900	-18	24	195	100731	0.50 
31.814	-1.3467	0.0791	1.4595	1.3428	50.7202	8.6060	7.0807	49.1803	81.1560	43.6900	0	20	200	100731	0.50 
31.942	-1.5552	0.0508	1.7075	7.2632	46.7529	8.9722	9.3768	53.7012	84.3256	43.7000	15	18	207	100731	0.50 
32.010	-1.7739	0.1396	1.7769	9.3994	21.1792	1.5259	10.9094	56.5466	85.9735	43.7100	27	15	215	100731	0.49 
32.146	-1.8335	0.1938	1.7822	4.1504	3.2349	9.1553	12.4091	57.3322	87.6160	43.7100	30	13	217	100732	0.49 
32.218	-2.0874	0.1836	1.9492	-7.0190	-3.0518	10.6812	13.2990	56.4642	89.6045	43.7300	35	7	217	100733	0.49 
32.346	-2.1763	0.3076	2.1270	2.3804	-8.6060	0.0610	13.6176	55.0195	90.5823	43.7000	34	9	215	100734	0.49 
32.440	-2.0288	0.1753	1.9536	6.7749	18.9209	-9.6436	13.0023	55.3326	90.3076	43.6800	34	10	211	100735	0.49 
32.581	-1.8354	0.1411	1.9395	1.7700	-22.3999	-12.2070	11.1072	54.7119	88.1488	43.6600	36	6	209	100735	0.49 
32.643	-1.8066	0.1743	2.1782	-12.9395	-71.4722	-10.1929	7.9211	49.3451	85.4736	43.6700	24	16	206	100735	0.49 
32.768	-1.6074	0.2002	1.4888	-0.0610	-118.8965	1.4648	4.7461	39.6057	82.4359	43.6500	3	18	196	100735	0.49 
32.862	-0.4839	0.0703	-0.1274	1.8311	-117.4316	12.2681	4.1968	30.3607	81.2549	43.6200	-23	21	182	100734	0.49 
32.987	-1.1260	-0.1436	1.3423	-11.2305	20.8740	9.0332	3.3893	34.0192	82.1228	43.5900	-38	27	181	100733	0.49 
33.050	-0.8633	0.0225	0.4492	-2.9297	-24.2920	-3.9673	2.3401	30.7562	81.1945	43.5900	-41	26	182	100733	0.49 
33.206	-0.4233	0.0664	2.3521	6.4697	242.7979	21.3623	3.5486	38.8751	83.3038	43.5800	-40	27	189	100732	0.49 
33.360	-0.7959	-0.0835	1.8340	-6.1035	-8.9722	-6.6528	4.0045	39.7156	83.3588	43.5800	-17	23	191	100732	0.49 
33.375	-1.0020	0.1479	0.7559	6.8359	-63.6597	-16.2354	2.9059	36.6614	80.7880	43.5500	-28	24	185	100732	0.49 
33.563	-1.6587	0.0469	2.2319	-7.7515	48.1567	12.2070	2.8400	39.6332	82.0239	43.5300	-33	24	186	100732	0.49 
33.657	-0.9126	0.0186	1.2339	0.6104	-36.7432	5.7983	2.7850	37.8424	82.3370	43.5400	-24	25	190	100731	0.49 
33.766	-1.6875	0.0698	2.2935	2.6245	2.3804	-11.2915	2.7795	39.6222	82.6392	43.5400	-28	28	193	100732	0.49 
33.860	-1.2661	0.0225	1.6992	-0.7324	7.9346	-2.3193	2.1588	37.7325	81.4526	43.5400	-29	25	189	100731	0.50 
33.969	-1.3125	0.0703	1.7520	0.4883	-11.5356	-0.4883	1.8677	37.5732	80.7880	43.5500	-30	30	191	100731	0.50 
34.063	-1.3794	0.0659	1.7983	1.4038	0.5493	2.6245	1.9446	37.5952	80.5353	43.5600	-32	29	193	100732	0.49 
34.172	-1.3804	0.0425	1.7275	5.8594	12.9395	-0.4883	2.3621	38.1885	80.4474	43.5600	-32	28	190	100731	0.49 
34.251	-1.2896	0.1099	1.5791	7.5073	24.3530	-0.7324	2.9443	40.0452	80.0299	43.5700	-31	26	192	100731	0.49 
34.377	-1.3618	0.0474	1.6992	2.9907	32.2266	5.1270	3.9331	42.9456	81.1780	43.5800	-24	22	194	100731	0.49 
34.455	-1.3750	0.0732	1.5762	-1.7700	31.0669	4.6997	4.7021	45.7471	82.3151	43.6000	-13	20	192	100732	0.49 
34.580	-1.5093	0.0620	1.6260	1.5869	31.7383	1.5869	5.5536	48.9276	83.5675	43.6000	-2	19	196	100732	0.49 
34.674	-1.5034	0.1055	1.5659	-0.2441	40.5273	10.0098	6.0919	51.9489	84.4849	43.6000	4	20	207	100732	0.49 
34.768	-1.6470	0.0415	1.6748	6.4697	40.4053	8.8501	8.0420	55.6073	87.1216	43.5900	17	19	210	100732	0.49 
34.877	-1.7603	0.1548	1.6948	9.6436	21.1182	-1.4648	9.4153	57.9803	88.2971	43.6100	26	17	211	100734	0.49 
35.002	-1.8804	0.1846	1.6592	3.9673	-4.6997	18.5547	11.4917	58.2275	90.4724	43.6200	30	11	210	100734	0.49 
35.080	-1.7412	0.1226	1.6245	4.2114	-0.3662	10.6201	13.8812	57.7551	93.2080	43.6100	36	9	210	100734	0.49 
35.205	-1.8560	0.2529	1.6675	3.7231	6.5918	-3.1128	13.9362	57.6892	93.3069	43.6000	36	4	213	100736	0.49 
35.297	-2.0313	0.2773	1.8354	-1.0376	1.5259	9.0942	14.4086	57.2443	94.3451	43.6000	37	8	212	100736	0.49 
35.406	-2.2056	0.2954	1.9663	-5.4932	-5.4321	9.0332	14.9963	56.1951	96.0974	43.6100	39	3	212	100736	0.49 
35.500	-1.8755	0.2065	1.8232	-5.1880	-9.8267	-8.3618	13.6505	55.0854	95.6030	43.6000	41	5	213	100737	0.49 
35.642	-1.8882	0.1953	1.9644	-9.0942	-42.4805	-10.6812	10.3107	52.5861	92.7081	43.5600	37	5	208	100737	0.49 
35.689	-1.9092	0.1631	2.2847	-22.5220	-95.0928	-31.1890	5.3943	45.6152	88.6047	43.5600	23	11	202	100737	0.49 
35.845	-1.5171	-0.0195	1.1260	0.3662	-126.5259	-19.0430	1.3568	34.1895	84.6661	43.5300	-7	20	194	100736	0.49 
35.892	-1.0225	0.1821	0.1191	-7.1411	-3.7842	23.1323	1.6644	27.4823	85.0452	43.4800	-41	27	187	100735	0.49 
36.080	-1.1113	-0.1367	1.2422	-8.9111	-55.1758	6.1035	1.7798	30.2673	87.5446	43.4800	-37	28	189	100734	0.49 
36.111	-1.0303	0.1196	0.7788	-6.0425	27.0996	28.3813	2.1973	28.2184	89.1101	43.4600	-40	31	192	100733	0.49 
36.261	-4.1714	-0.0986	6.2153	-10.1929	52.4292	38.7573	4.9823	39.2102	94.7900	43.4500	-20	25	199	100732	0.49 
36.410	-1.4507	0.0039	2.4639	22.8882	42.0532	-57.2510	4.0594	35.0409	89.9615	43.4500	-11	23	200	100732	0.49 
36.472	-0.8765	0.0840	0.9341	4.0894	-31.4331	-24.2310	2.1753	31.6132	85.3528	43.4300	-28	26	193	100732	0.49 
36.613	-1.7715	0.0581	2.4590	-8.9722	57.3120	-2.7466	1.4667	36.1230	84.3036	43.4100	-33	25	191	100731	0.50 
36.691	-0.9165	0.0020	1.3032	2.0142	-6.7139	1.1597	1.4282	33.7994	83.7488	43.4200	-33	27	192	100731	0.50 
36.818	-1.5400	0.0303	2.1045	1.0376	-12.2070	2.8076	1.7303	35.9967	83.8696	43.4200	-30	28	197	100731	0.50 
36.882	-1.3999	0.0459	1.9067	0.7324	20.8130	6.3477	2.0654	35.5902	83.7927	43.4300	-28	27	194	100731	0.50 
37.014	-1.2637	0.0322	1.7651	0.7324	1.5259	2.2583	2.4664	35.7495	83.9905	43.4200	-28	29	196	100731	0.50 
37.082	-1.3398	0.0620	1.8228	-0.1831	2.3193	2.0142	2.5763	36.1450	83.7323	43.4200	-25	29	197	100730	0.50 
37.240	-1.3735	0.0474	1.8252	0.0610	2.1362	2.1362	2.6697	36.3922	83.5565	43.4300	-25	30	194	100730	0.50 
37.312	-1.3574	0.0571	1.8071	1.7700	1.0986	-0.5493	2.8235	36.5570	83.4192	43.4300	-24	24	194	100730	0.50 
37.473	-1.3633	0.0674	1.7900	3.6621	3.9673	2.3804	3.0981	36.8646	83.2214	43.4400	-23	25	195	100730	0.50 
37.536	-1.3770	0.0493	1.7329	6.2256	9.8267	0.1221	3.6530	37.5842	83.3203	43.4500	-23	25	196	100730	0.50 
37.645	-1.3501	0.0552	1.6016	14.2822	26.6113	-9.6436	4.2682	39.4189	82.6611	43.4500	-23	24	193	100729	0.50 
37.739	-1.3120	0.0684	1.5234	10.3149	39.1846	-9.5215	4.9219	42.8906	82.0294	43.4600	-18	22	193	100730	0.50 
37.833	-1.3452	0.1367	1.4590	12.5732	40.4053	-17.8833	5.2954	46.9775	81.0352	43.4700	-10	18	191	100730	0.50 
37.927	-1.4556	0.1006	1.5674	2.9297	58.4717	-0.5493	5.8447	51.8390	81.5790	43.4900	-2	17	194	100730	0.50 
38.099	-1.6265	0.1235	1.6753	-5.6763	39.3066	10.9863	6.9708	55.6348	83.8971	43.4800	12	12	202	100730	0.50 
38.255	-1.8110	0.0386	1.7119	-5.0049	29.7852	20.1416	10.3491	57.5299	89.1870	43.4900	22	13	209	100730	0.50 
38.259	-1.8149	0.1592	1.6875	-0.6714	9.3994	7.2632	11.2830	58.5187	91.1591	43.4800	33	11	214	100731	0.49 
38.315	-1.8726	0.1372	1.6460	-3.2959	3.4790	0.0610	11.6949	58.1451	92.3016	43.4800	39	10	216	100732	0.49 
38.503	-1.9565	0.1509	1.7207	-2.5024	-10.0098	7.1411	10.8215	57.3596	92.1698	43.4700	39	8	217	100732	0.49 
38.627	-2.1191	0.3286	1.8823	-2.3193	-10.3760	15.0146	11.4258	55.4480	93.3618	43.4700	34	7	216	100733	0.49 
38.674	-2.2446	0.2544	2.0625	3.0518	-1.2207	-1.2207	12.1289	54.9921	94.7516	43.4600	33	6	217	100734	0.49 
38.862	-1.7603	0.1089	1.7676	4.8828	-17.3340	-19.6533	10.3217	53.6353	92.4829	43.4700	38	9	212	100734	0.49 
38.924	-1.8218	0.1729	2.1030	0.6714	-39.3066	-15.5029	7.0752	51.1304	87.9565	43.4500	26	13	207	100734	0.49 
39.049	-1.7573	0.1714	1.9414	-10.0708	-98.8770	-17.3340	4.1638	42.4292	84.8859	43.4600	7	12	195	100734	0.49 
39.112	-1.6021	0.0337	0.8623	-0.6714	-128.5400	-8.1787	2.3621	32.6514	83.7213	43.4000	-15	21	184	100734	0.49 
39.277	-1.1934	-0.1396	1.0503	-20.2637	68.4204	23.3765	2.8729	31.4429	86.6656	43.3800	-40	24	179	100733	0.49 
39.333	-1.0068	0.0044	0.7803	-9.5215	-74.2798	-3.3569	2.1039	30.4102	87.0282	43.3700	-35	27	188	100732	0.49 
39.505	-1.0518	0.0186	1.0137	4.3335	44.3726	24.7192	1.9995	31.0748	87.0392	43.3700	-40	28	188	100731	0.49 
39.567	-0.8896	-0.0630	2.4355	22.7051	-93.6279	27.2827	4.0979	40.1440	90.0549	43.3800	-18	25	199	100731	0.49 
39.676	-1.0347	0.2451	1.4639	-2.1362	-45.8984	-11.5967	2.7631	36.4966	86.5942	43.3400	-24	24	197	100731	0.49 
39.739	-1.1680	-0.0176	1.3633	1.8311	45.8984	-9.9487	2.0929	35.6067	85.9460	43.3300	-32	27	196	100731	0.50 
39.848	-1.2065	0.0103	1.6836	4.5166	-68.1152	-3.7231	1.6534	37.1118	84.4629	43.3200	-26	28	191	100732	0.49 
40.067	-1.5371	0.1626	1.9927	0.7935	19.7754	1.2207	1.4996	37.2711	83.1116	43.3200	-31	26	191	100731	0.49 
40.114	-1.1729	0.0288	1.6836	-1.8921	-8.7280	8.7891	1.9556	35.7330	83.7323	43.3200	-35	27	191	100732	0.49 
40.130	-1.2793	0.0327	1.7847	0.4883	-9.7046	-0.8545	2.1698	35.3101	83.8257	43.3300	-35	30	195	100731	0.49 
40.255	-1.3022	0.0591	1.8457	0.3662	-3.9673	0.4883	2.2687	34.8981	83.1665	43.3400	-36	29	192	100731	0.49 
40.350	-1.2910	0.0518	1.8418	-0.4883	-2.3193	2.8687	2.3621	34.5905	82.8864	43.3400	-36	27	190	100731	0.50 
40.522	-1.2915	0.0688	1.8340	-0.2441	-1.2817	2.0752	2.4170	34.4861	82.7545	43.3500	-34	25	193	100731	0.50 
40.584	-1.2876	0.0483	1.8340	-1.4648	-1.0376	4.8218	2.5378	34.3213	82.8149	43.3600	-33	29	194	100731	0.50 
40.709	-1.2949	0.0386	1.8335	-0.4272	0.9766	0.9766	2.5378	34.3268	82.6062	43.3600	-36	26	190	100731	0.50 
40.772	-1.2783	0.0410	1.8408	-0.6104	1.0376	1.7700	2.5433	34.3707	82.3810	43.3800	-36	26	189	100731	0.50 
40.928	-1.2627	0.0386	1.8315	0.4883	-0.1831	4.2114	2.5708	34.4037	82.1942	43.3700	-37	27	192	100731	0.50 
41.069	-1.2637	0.0537	1.8267	5.9814	6.1646	-3.1128	2.9169	34.6948	81.8427	43.3900	-33	28	192	100730	0.50 
41.115	-1.3252	0.1201	1.8389	-3.1128	11.2915	1.9531	3.1201	35.6836	81.6119	43.4000	-33	27	191	100730	0.50 
41.178	-1.3403	0.0479	1.7988	-9.2773	1.7700	8.9111	2.5928	36.2054	81.9635	43.4000	-31	25	193	100730	0.50 
41.336	-1.3350	0.0322	1.8428	0.0000	2.1973	3.7231	2.5104	36.5021	82.3810	43.4000	-28	27	193	100730	0.50 
41.398	-1.3350	0.0532	1.8330	1.2207	3.7231	0.6714	2.6971	36.7603	82.2107	43.3900	-27	30	194	100731	0.50 
41.539	-1.3374	0.0488	1.8228	0.5493	1.5869	-1.6479	2.6862	36.8976	81.8427	43.4000	-28	28	192	100731	0.50 
41.695	-1.3452	0.0479	1.8291	0.1831	-0.8545	-2.3193	2.5214	36.8976	81.3757	43.4000	-25	26	196	100731	0.50 
41.775	-1.3071	0.0474	1.8291	-0.1221	-1.9531	-2.4414	2.3126	36.6614	80.8154	43.4100	-26	27	191	100730	0.50 
41.815	-1.3252	0.0522	1.8071	1.3428	-1.0986	-0.1221	2.1863	36.5735	80.2771	43.4000	-28	29	191	100730	0.50 
41.975	-1.3481	0.0420	1.8198	1.4038	1.7700	-2.9907	2.1368	36.7877	79.7937	43.4200	-28	26	194	100731	0.50 
42.139	-1.3521	0.0552	1.8247	-0.3052	7.2632	-8.9722	1.7963	37.0679	79.1510	43.4100	-31	23	195	100730	0.50 
42.195	-1.3320	0.0737	1.7886	1.6479	0.9155	-2.6855	1.3898	37.2272	78.0688	43.4100	-31	28	194	100730	0.50 
42.283	-1.3677	0.0215	1.7905	1.4038	-4.3945	-7.9346	1.1206	37.0459	77.1735	43.4200	-33	27	194	100730	0.50 
42.355	-1.3364	0.0078	1.8574	4.0283	-0.1831	-17.5781	0.4999	36.9031	75.5310	43.4200	-35	26	190	100731	0.50 
42.502	-1.3354	0.0313	1.8135	6.9580	-0.3052	-15.5640	-0.2802	36.8317	73.1250	43.4300	-40	28	189	100731	0.50 
42.571	-1.3501	0.0664	1.8091	2.9907	5.2490	-7.6904	-0.4724	36.9855	71.7847	43.4500	-45	28	189	100731	0.50 
42.687	-1.3896	0.0952	1.8271	-3.0518	3.8452	13.7329	-0.0659	37.4414	72.2681	43.4300	-48	27	189	100731	0.49 
42.772	-1.3501	0.0298	1.7827	0.7324	0.3052	-2.0752	0.1538	37.5183	72.7240	43.4300	-46	29	188	100731	0.50 
42.941	-1.3813	0.0264	1.8213	3.9063	0.5493	-15.4419	-0.3845	37.6886	71.2793	43.4500	-46	28	187	100731	0.49 
43.103	-1.3872	0.0332	1.8286	1.2817	4.1504	-9.5825	-1.2415	37.8864	69.4006	43.4300	-48	25	188	100731	0.50 
43.219	-1.3901	0.0640	1.8232	-2.7466	2.6245	14.0381	-1.0217	38.1830	69.8346	43.4500	-50	29	190	100731	0.49 
43.219	-1.3657	-0.0146	1.8184	-3.9063	0.0610	17.9443	0.3900	38.1226	72.7679	43.4400	-48	25	189	100732	0.49 
43.341	-1.3652	0.0532	1.8052	0.7324	-2.0142	-3.6011	0.5988	37.9083	73.2733	43.4500	-44	28	190	100731	0.50 
43.419	-1.3691	0.0845	1.8301	-0.0610	7.2021	-1.4038	0.2911	38.0621	72.5812	43.4700	-45	29	191	100731	0.50 
43.556	-1.3999	0.0083	1.7949	-6.2866	5.9204	9.8877	0.6207	38.5510	73.5809	43.4700	-44	27	186	100731	0.50 
43.618	-1.3691	-0.0293	1.8242	-0.4883	2.0752	-0.4883	0.4449	38.8696	73.9600	43.4700	-39	27	191	100731	0.50 
43.756	-1.3940	0.0703	1.8066	-1.5869	1.2817	5.6763	0.6537	38.9136	74.2456	43.4800	-40	28	189	100731	0.50 
43.818	-1.4023	0.0571	1.8164	-1.6479	-2.1973	10.3760	1.1096	38.8696	75.1794	43.4800	-38	31	196	100730	0.50 
43.987	-1.3833	0.0225	1.7813	0.7324	-2.4414	3.9063	1.4832	38.4631	75.9320	43.4800	-38	26	193	100730	0.50 
44.055	-1.3979	0.0430	1.8145	1.8311	-4.2114	-1.3428	1.4667	38.3917	75.6464	43.5000	-35	29	194	100731	0.50 
44.140	-1.3818	0.0381	1.8008	2.2583	4.1504	-2.6245	1.3568	38.4082	75.2563	43.4900	-38	28	193	100730	0.50 
44.219	-1.3774	-0.0176	1.8086	2.1973	-2.7466	-9.6436	0.9778	38.4521	74.6686	43.4800	-39	25	193	100731	0.50 
44.356	-1.4077	0.0742	1.8120	4.0283	-1.8921	-4.5776	0.6702	38.3258	73.7238	43.5000	-42	26	192	100731	0.50 
44.434	-1.3760	0.0400	1.8096	4.0283	0.2441	-4.6997	0.7361	38.1940	73.3557	43.5000	-45	27	192	100730	0.50 
44.602	-1.3682	0.0454	1.7944	2.8687	-2.9907	-2.0142	1.0272	37.9523	73.3118	43.5000	-45	26	189	100730	0.50 
44.671	-1.3926	0.0752	1.7944	-0.2441	-6.1035	2.5024	1.1755	37.6007	73.4381	43.5100	-45	24	188	100729	0.50 
44.772	-1.3735	-0.0103	1.8350	0.0000	1.2817	-2.9907	1.0602	37.3755	73.5809	43.5200	-46	27	187	100729	0.50 
44.856