StartTime: 2017-07-12 15:53:07.203
Time(s)	ax(g)	ay(g)	az(g)	wx(deg/s)	wy(deg/s)	wz(deg/s)	AngleX(deg)	AngleY(deg)	AngleZ(deg)	T(°)	hx	hy	hz	Pressure(Pa)	Altitude(m) 
110.300	-1.0664	-0.0581	1.8789	0.3052	0.5493	1.0376	-1.8842	29.3500	31.0583	44.7300	-80	42	203	100784	0.45 
110.456	-1.0669	-0.0659	1.8750	-0.0610	0.5493	1.0376	-1.8292	29.4104	31.1462	44.7100	-79	41	196	100785	0.45 
110.456	-1.0635	-0.0645	1.8774	-0.1831	-0.0610	0.2441	-1.8182	29.4269	31.1133	44.7100	-82	42	198	100785	0.45 
110.566	-1.0659	-0.0757	1.8833	-0.8545	0.9155	-0.1221	-1.9171	29.4489	30.9265	44.7100	-78	43	198	100785	0.45 
110.722	-1.0757	-0.0566	1.8740	-0.9155	0.8545	1.4648	-1.9885	29.5038	30.8112	44.7100	-82	42	199	100785	0.45 
110.816	-1.0820	-0.0801	1.8848	-1.0986	-0.0610	9.1553	-1.7413	29.6082	31.5198	44.7300	-78	43	200	100785	0.45 
110.847	-1.0708	-0.0952	1.8838	-0.3052	-1.0376	10.9863	-1.2854	29.5807	32.6404	44.7500	-79	44	202	100784	0.45 
110.925	-1.0757	-0.1113	1.8770	1.2207	0.2441	11.9629	-0.6921	29.5587	33.8983	44.7200	-74	42	200	100784	0.45 
111.142	-1.0767	-0.1006	1.8740	3.6011	-1.3428	12.0850	0.0769	29.5203	35.2167	44.7200	-72	42	198	100784	0.45 
111.267	-1.0854	-0.0859	1.8765	5.4932	-3.8452	16.0522	1.0931	29.2950	36.8866	44.7200	-66	40	198	100784	0.45 
111.267	-1.0718	-0.1138	1.8818	6.0425	-6.8359	22.0947	2.4774	28.7238	39.3146	44.7300	-61	43	202	100784	0.45 
111.455	-1.0713	-0.1216	1.8774	7.3242	-10.6812	20.2637	3.8287	27.8558	41.6382	44.7100	-55	40	196	100784	0.45 
111.455	-1.0581	-0.1270	1.8477	7.6294	-12.0239	18.0054	5.0098	26.5814	43.6157	44.7300	-54	36	191	100784	0.45 
111.611	-1.0542	-0.0981	1.7363	8.6670	-11.0474	18.2495	6.0864	25.5762	45.4724	44.7100	-49	39	191	100784	0.45 
111.689	-1.0376	-0.2275	1.7173	3.8452	-4.0894	9.1553	6.7181	25.0433	47.4829	44.7200	-45	38	192	100784	0.45 
111.814	-1.0820	-0.1802	1.5752	5.0659	5.6152	-18.1274	6.3281	25.4553	47.2522	44.7200	-43	37	189	100784	0.45 
111.830	-1.1055	-0.2344	1.3462	15.1978	23.4985	-29.2969	5.4053	27.7185	45.6427	44.7100	-45	35	192	100784	0.45 
112.023	-1.1602	0.2095	1.2212	60.1807	47.6685	16.6016	7.3938	31.7010	45.2362	44.7200	-45	30	184	100784	0.45 
112.043	-1.2896	0.6162	2.0342	98.2056	6.5308	168.3350	21.4288	34.0356	59.4415	44.7200	-25	13	172	100784	0.45 
112.242	-0.6064	1.4063	3.8672	181.7627	-170.0439	183.5327	41.5503	14.6008	76.3330	44.7000	-5	-30	148	100786	0.45 
112.258	-0.3696	0.9507	1.0044	128.1128	-210.0220	102.2949	58.1451	-10.5963	73.4985	44.6600	-51	-88	121	100788	0.45 
112.418	0.1470	0.3823	0.4512	112.2437	-136.0474	86.9141	72.4493	-31.0419	67.4945	44.6300	-117	-124	132	100788	0.45 
112.490	-0.4155	0.1289	0.4619	3.6621	-14.3433	72.6318	75.3113	-38.9630	72.0374	44.6300	-154	-150	153	100789	0.45 
112.618	0.0645	0.3496	0.7803	-34.9121	93.0786	32.2876	65.5170	-40.6494	85.4517	44.6200	-160	-144	161	100789	0.45 
112.690	-0.1738	0.1758	1.2852	-33.0811	59.5703	-7.0190	50.2405	-39.3256	103.9801	44.6100	-142	-130	143	100790	0.45 
112.850	-0.2031	0.4023	1.6328	-20.9961	86.7310	-60.7300	41.9458	-32.0471	113.1921	44.6000	-119	-116	127	100790	0.45 
112.882	-0.2744	0.5186	1.5410	17.0898	-20.1416	-31.4941	41.0504	-26.9604	116.1420	44.6100	-100	-113	124	100790	0.45 
113.272	-0.3364	0.6401	1.0054	31.4941	-122.0093	12.7563	44.4397	-30.8551	114.7961	44.6100	-110	-121	127	100790	0.45 
113.287	-0.1157	0.5142	0.9214	-10.3760	13.6108	23.1323	43.7640	-34.0302	118.5205	44.5900	-132	-124	153	100791	0.45 
113.365	-0.0190	0.3301	1.1113	-1.4038	38.8794	70.1294	35.8099	-34.4366	132.6764	44.5900	-129	-119	159	100791	0.44 
113.490	-0.1172	0.3242	1.1724	-0.8545	10.0098	-3.6011	30.1135	-33.5083	142.9816	44.6000	-121	-111	154	100791	0.45 
113.522	-0.0884	0.3613	1.1694	-0.6714	-1.4038	-25.3906	28.6084	-31.0583	146.3928	44.6100	-120	-107	150	100791	0.44 
113.522	-0.1362	0.4414	1.1167	-3.2349	-8.9111	-25.6958	28.2074	-28.9819	147.8540	44.6100	-121	-114	150	100791	0.44 
113.725	-0.1152	0.4121	1.0869	-3.4790	-2.3804	-2.8687	26.8726	-27.5317	150.8258	44.6000	-123	-112	147	100791	0.44 
113.787	-0.1567	0.4678	1.1411	-4.8828	9.1553	-7.9346	25.2136	-25.4938	154.5062	44.6200	-123	-115	147	100791	0.45 
114.048	-0.1348	0.4409	1.1602	-0.5493	7.6904	-6.9580	23.8953	-22.7911	157.9010	44.6400	-122	-111	142	100791	0.44 
114.162	-0.1450	0.4775	1.1353	-1.4648	9.9487	-6.4697	23.0383	-20.3247	160.9552	44.6400	-116	-117	136	100791	0.45 
114.209	-0.1875	0.4902	1.1992	-2.9297	13.7939	-4.5166	22.0551	-17.6935	164.1632	44.6300	-118	-115	134	100790	0.45 
114.287	-0.2119	0.4673	1.2612	-5.2490	37.4756	22.9492	20.6488	-14.4305	168.5083	44.6400	-112	-116	133	100791	0.45 
114.334	-0.1768	0.3989	1.2671	-2.3193	8.3008	34.4238	18.8910	-12.6892	174.9683	44.6500	-103	-109	128	100791	0.45 
114.443	-0.1455	0.3628	1.2578	-0.7324	1.8921	4.4556	17.8583	-11.8213	179.1046	44.6500	-100	-107	127	100791	0.44 
114.490	-0.1724	0.3887	1.2661	0.4883	-2.8687	-5.3101	17.6001	-10.7776	-179.4067	44.6400	-98	-110	127	100792	0.44 
114.693	-0.1646	0.3882	1.2666	0.1221	-1.0986	-0.1831	17.4078	-9.9207	-177.9126	44.6400	-98	-109	126	100792	0.44 
114.943	-0.1797	0.3936	1.2764	1.1597	-12.5732	3.5400	17.2266	-9.5691	-176.1877	44.6700	-101	-108	128	100792	0.44 
115.054	-0.1802	0.3521	1.2324	0.1221	-18.7988	6.7139	17.0563	-10.5139	-174.3695	44.6500	-108	-108	131	100792	0.44 
115.211	-0.1274	0.3789	1.1787	7.6294	-28.6865	-4.5166	17.4188	-11.6785	-173.6169	44.6600	-115	-109	128	100792	0.44 
115.211	-0.0601	0.4629	1.1016	-3.4180	3.9673	13.8550	17.9187	-12.6068	-172.3920	44.6800	-118	-111	137	100792	0.44 
115.383	-0.1689	0.3120	1.1860	0.7324	7.1411	5.4932	17.1442	-11.0797	-169.4751	44.6800	-118	-109	132	100792	0.44 
115.383	-0.0947	0.3921	1.1621	-1.1597	-2.9907	7.3853	16.8805	-10.2393	-167.4591	44.6900	-120	-110	134	100792	0.44 
115.461	-0.1055	0.3657	1.1509	0.7935	-3.2349	-1.9531	16.6827	-9.7394	-165.8606	44.6900	-120	-110	137	100791	0.44 
115.633	-0.1196	0.3687	1.1396	-0.4883	0.0610	3.1128	16.6113	-9.0417	-164.5203	44.7100	-120	-108	136	100792	0.44 
115.711	-0.1060	0.3643	1.1689	-0.2441	0.7324	1.8921	16.4026	-8.1628	-162.8833	44.7000	-121	-110	134	100791	0.44 
115.852	-0.1040	0.3628	1.1582	-0.0610	-0.0610	-2.0752	16.3367	-7.4213	-161.7133	44.7100	-121	-107	136	100791	0.44 
115.946	-0.1089	0.3701	1.1538	0.2441	-0.9155	-1.1597	16.3092	-6.7401	-160.6860	44.7000	-123	-109	136	100791	0.45 
116.151	-0.1152	0.3667	1.1563	0.0000	-0.2441	-2.0752	16.3202	-6.0535	-159.7797	44.7100	-120	-109	136	100791	0.44 
116.151	-0.1128	0.3770	1.1616	-0.2441	0.3662	1.1597	16.3202	-5.3668	-158.8348	44.7100	-121	-109	137	100791	0.44 
116.386	-0.1191	0.3779	1.1641	0.1831	-1.8921	-0.4883	16.3257	-4.8120	-157.8406	44.7100	-120	-111	134	100791	0.44 
116.386	-0.1221	0.3740	1.1445	0.2441	-3.5400	-5.7983	16.4191	-4.4165	-157.4780	44.7200	-119	-111	137	100792	0.44 
116.448	-0.1167	0.3936	1.1460	-0.1831	-1.0986	-0.0610	16.5015	-3.9496	-156.8793	44.7300	-124	-108	134	100792	0.44 
116.604	-0.1177	0.3887	1.1411	-0.3052	-1.5259	0.0610	16.5564	-3.5101	-156.0663	44.7200	-122	-110	136	100792	0.44 
116.682	-0.1235	0.3926	1.1313	-0.4883	-3.6011	1.8311	16.5839	-3.2300	-155.2753	44.7400	-121	-114	134	100792	0.44 
116.792	-0.1167	0.3853	1.1377	-0.2441	-0.3662	1.9531	16.6278	-2.8949	-154.4733	44.7500	-123	-110	138	100791	0.44 
116.792	-0.1089	0.3833	1.1318	-0.3662	-0.9155	1.2207	16.6772	-2.4774	-153.6548	44.7500	-122	-113	136	100791	0.44 
117.026	-0.1108	0.3867	1.1382	-0.6714	-2.1362	1.6479	16.6827	-2.1313	-152.9407	44.7500	-125	-111	138	100791	0.44 
117.026	-0.1157	0.3784	1.1348	-0.4883	-0.0610	1.8921	16.7102	-1.8787	-152.2266	44.7600	-123	-108	135	100791	0.44 
117.248	-0.1089	0.3887	1.1411	-0.0610	0.4272	0.5493	16.7487	-1.4172	-151.4630	44.7700	-123	-110	133	100791	0.45 
117.248	-0.1104	0.3818	1.1372	-0.1831	0.4272	0.9766	16.8146	-1.0217	-150.8478	44.7500	-129	-110	136	100791	0.45 
117.390	-0.1113	0.3818	1.1392	-0.1831	-0.1831	0.4272	16.8695	-0.6592	-150.2106	44.7500	-127	-111	139	100791	0.44 
117.394	-0.1152	0.3818	1.1265	-0.1831	-0.1221	2.5024	16.9299	-0.3625	-149.6777	44.7600	-122	-110	136	100792	0.44 
117.442	-0.1016	0.3730	1.1465	-0.1831	3.8452	1.2817	16.9464	0.0714	-148.8483	44.7800	-127	-107	137	100791	0.44 
117.566	-0.1172	0.3794	1.1460	0.0000	0.7324	0.1831	16.9958	0.5658	-148.3154	44.7700	-125	-108	135	100791	0.45 
117.582	-0.1113	0.3789	1.1426	-0.1831	-0.3662	1.8311	17.0453	0.8185	-147.8265	44.7800	-121	-109	132	100791	0.44 
117.734	-0.1143	0.3735	1.1475	-0.1831	0.1221	0.9155	17.0782	1.0547	-147.3596	44.7800	-123	-106	136	100791	0.44 
117.798	-0.1143	0.3799	1.1499	-0.1221	-0.7324	1.0376	17.1167	1.2799	-146.9751	44.8000	-123	-109	136	100791	0.44 
117.953	-0.1128	0.3740	1.1431	-0.1831	-0.6714	1.8311	17.1606	1.4172	-146.5851	44.7900	-122	-108	137	100791	0.44 
117.984	-0.1172	0.3745	1.1416	0.0000	-1.5869	0.4272	17.1881	1.5216	-146.2335	44.7900	-123	-109	137	100791	0.44