StartTime: 2017-07-07 11:25:55.469
Time(s)	ax(g)	ay(g)	az(g)	wx(deg/s)	wy(deg/s)	wz(deg/s)	AngleX(deg)	AngleY(deg)	AngleZ(deg)	T(°)	hx	hy	hz	Pressure(Pa)	Altitude(m) 
190.515	-0.1685	0.0313	0.9995	-0.4883	0.1831	0.1831	2.0160	8.7506	-158.1702	43.2200	-131	-270	121	100767	0.46 
190.559	-0.1553	0.0430	0.9839	-0.3662	-0.0610	0.0000	1.9885	8.7122	-158.1921	43.2100	-128	-269	125	100767	0.47 
190.570	-0.1567	0.0376	0.9839	-0.4883	-0.9766	-0.4883	1.9720	8.7067	-158.2086	43.2200	-130	-268	124	100767	0.46 
190.681	-0.1519	0.0488	0.9897	-0.2441	0.0000	-1.0376	1.9501	8.6023	-158.3020	43.2500	-127	-272	122	100767	0.46 
190.755	-0.1611	0.0566	1.0005	0.0000	-1.5869	1.9531	1.9775	8.5693	-158.3240	43.2500	-127	-272	118	100767	0.46 
190.915	-0.1650	0.0601	0.9746	0.0000	2.0752	-12.2681	1.9171	8.5968	-158.4558	43.2400	-127	-271	120	100767	0.47 
190.980	-0.1992	0.0547	0.9824	2.6855	-2.0142	-8.7891	1.8567	8.8110	-159.6039	43.2500	-126	-273	122	100767	0.47 
191.094	-0.1782	0.0488	0.9854	0.4883	-2.3193	4.8828	2.1259	8.6407	-159.7192	43.2400	-121	-270	124	100767	0.47 
191.177	-0.1831	0.0337	0.9941	0.7935	-2.5024	9.4604	2.2742	8.5748	-158.9832	43.2600	-126	-271	126	100767	0.47 
191.290	-0.1763	0.0547	0.9751	0.8545	-2.5635	11.4136	2.5543	8.4430	-157.9779	43.2600	-125	-272	126	100767	0.47 
191.368	-0.2451	0.0376	0.9580	-0.4272	0.4272	12.0239	2.8070	8.4100	-156.8683	43.2600	-131	-272	122	100766	0.47 
191.484	-0.3560	0.0283	0.8340	-0.1221	6.7139	9.7656	2.8949	9.3274	-156.1487	43.2700	-131	-270	121	100766	0.47 
191.570	-0.1904	-0.0640	0.4204	-1.7090	50.5371	18.1274	3.0322	13.0847	-155.0336	43.2700	-135	-269	120	100766	0.47 
191.706	-0.1270	0.1035	0.8477	-3.5400	-9.4604	-0.5493	2.3785	16.2213	-154.9677	43.2700	-131	-264	116	100767	0.47 
191.779	-0.2866	-0.1333	1.2881	-6.5308	13.8550	-23.3154	1.7249	16.7487	-154.6436	43.2800	-133	-264	112	100767	0.47 
191.915	-0.4014	-0.1489	1.2993	-2.2583	-3.2349	18.0054	1.4502	15.8313	-155.0665	43.2700	-136	-260	112	100767	0.46 
191.986	-0.2241	-0.0415	1.1348	1.8311	-26.3672	8.9722	1.6589	11.6895	-154.1272	43.2800	-154	-254	115	100768	0.46 
192.139	-0.3652	-0.0845	1.2329	3.9673	-127.0752	26.2451	1.7523	4.1638	-152.5562	43.2700	-179	-249	122	100768	0.46 
192.279	0.5747	-0.1289	0.9351	9.1553	-33.9966	-17.8223	2.4005	-5.4218	-151.4191	43.2700	-207	-247	138	100768	0.46 
192.365	0.2598	0.0234	0.9565	7.2021	-23.1934	10.5591	3.1036	-8.3386	-150.0677	43.2600	-215	-245	149	100769	0.46 
192.532	0.1299	0.1553	1.0210	-0.0610	-33.4473	7.5073	3.4772	-10.7117	-149.3591	43.2700	-218	-243	157	100769	0.46 
192.593	0.2480	0.0654	0.9434	0.7935	-15.0146	-2.6855	3.4882	-13.1506	-148.3429	43.2500	-223	-246	161	100770	0.46 
192.696	0.1377	0.0938	0.9048	0.3052	-2.5635	-3.2959	3.7299	-13.5791	-148.1232	43.2700	-223	-247	166	100770	0.46 
192.768	0.3726	0.0908	0.9595	-3.5400	-2.8076	-2.4414	3.6694	-12.2498	-148.5846	43.2700	-224	-248	164	100770	0.46 
192.923	0.1821	0.0400	0.9692	0.1831	-6.2256	1.7090	3.5376	-12.4640	-147.6947	43.2800	-222	-246	167	100770	0.46 
192.977	0.2153	0.0503	0.9946	0.1831	-4.8828	3.6011	3.5046	-12.9364	-146.7554	43.2600	-224	-247	166	100770	0.46 
193.126	0.2495	0.0591	0.9502	1.0376	-6.1035	2.3193	3.5101	-13.7988	-145.8051	43.2700	-224	-244	165	100770	0.46 
193.186	0.2583	0.0552	0.9673	1.8311	-0.3052	-2.8687	3.6420	-13.9856	-145.2008	43.2900	-223	-245	170	100771	0.46 
193.330	0.2163	0.0649	0.9863	0.4883	3.7842	-1.2817	3.8342	-13.4912	-144.8163	43.2900	-223	-249	168	100770	0.46 
193.406	0.2324	0.0708	0.9775	0.0000	-1.0986	0.0610	3.8837	-13.4033	-144.2780	43.3000	-223	-246	168	100770	0.46 
193.571	0.2295	0.0728	0.9805	0.0610	-1.4648	0.7935	3.9221	-13.4528	-143.7451	43.3100	-225	-246	166	100770	0.46 
193.715	0.2432	0.0605	0.9741	0.9766	-1.0376	-0.4883	3.9441	-13.5956	-143.2452	43.3000	-223	-245	165	100771	0.46 
193.763	0.2280	0.0762	0.9727	-0.1221	0.4883	0.8545	3.9990	-13.6230	-142.7344	43.3200	-222	-246	167	100771	0.46 
193.776	0.2314	0.0737	0.9717	0.1221	-0.2441	0.2441	4.0210	-13.6285	-142.2729	43.3100	-221	-248	167	100770	0.46 
193.975	0.2388	0.0796	0.9595	2.3804	0.1221	0.8545	4.1144	-13.6505	-141.8719	43.3200	-220	-248	165	100770	0.46 
194.131	0.2227	0.0835	0.9800	-1.0376	-2.3804	0.0610	4.1089	-13.5791	-141.4215	43.3300	-223	-245	169	100770	0.46 
194.178	0.2261	0.0654	0.9790	-1.5869	-0.4883	0.7324	3.9771	-13.7274	-141.0645	43.3300	-225	-246	168	100771	0.46 
194.192	0.2271	0.0684	0.9785	-0.6714	0.1831	0.6104	3.8342	-13.8043	-140.6799	43.3400	-226	-246	166	100770	0.46 
194.393	0.2451	0.0703	0.9692	-0.7324	-0.4272	1.0986	3.7793	-13.8538	-140.3229	43.3200	-225	-247	169	100770	0.46 
194.462	0.2329	0.0659	0.9702	-0.3052	-0.8545	0.1221	3.6859	-13.9526	-139.9548	43.3400	-228	-244	170	100770	0.46 
194.556	0.2139	0.0654	0.9990	0.1831	-3.7842	0.5493	3.6639	-14.0460	-139.6527	43.3200	-227	-246	169	100770	0.46 
194.630	0.2607	0.0674	0.9526	0.3662	-2.9907	0.3662	3.7134	-14.7272	-139.4440	43.3300	-227	-244	167	100770	0.46 
194.730	0.2627	0.0645	0.9614	-0.3662	-2.1973	0.4272	3.7244	-14.9634	-139.1364	43.3500	-226	-247	169	100770	0.46 
194.801	0.2529	0.0669	0.9722	-0.2441	-0.6104	0.2441	3.7079	-14.9854	-138.8397	43.3300	-225	-247	168	100770	0.46 
194.979	0.2549	0.0640	0.9766	-0.1831	0.0000	0.2441	3.6859	-14.9908	-138.5760	43.3600	-225	-244	166	100770	0.46 
195.160	0.2393	0.0649	0.9800	0.0000	-3.3569	0.0000	3.6639	-15.0897	-138.3563	43.3400	-226	-247	167	100771	0.46 
195.209	0.2827	0.0723	0.9541	-0.1221	-1.8311	0.9155	3.7189	-15.5457	-138.1696	43.3700	-228	-244	172	100771	0.46 
195.221	0.2773	0.0708	0.9585	-0.1221	-1.0376	0.7324	3.7079	-15.6610	-137.8784	43.3600	-228	-244	174	100771	0.46 
195.392	0.2632	0.0645	0.9712	-0.3662	0.0610	-0.4272	3.7024	-15.6500	-137.6532	43.3500	-228	-245	171	100771	0.46 
195.557	0.2715	0.0688	0.9678	-0.3052	-3.6011	1.5259	3.6859	-15.8752	-137.4719	43.3400	-229	-245	173	100770	0.46 
195.608	0.2700	0.0723	0.9561	-0.8545	-1.7090	0.5493	3.6420	-16.1664	-137.2137	43.3600	-230	-247	172	100770	0.46 
195.631	0.3286	0.0640	0.9380	-1.3428	0.6714	3.2349	3.5266	-16.2982	-136.9336	43.3600	-228	-245	172	100770	0.46 
195.746	0.2910	0.0566	0.9502	0.0000	-1.2207	2.0752	3.4772	-16.2872	-136.7249	43.3800	-228	-244	169	100770	0.46 
195.831	0.2764	0.0630	0.9604	0.1221	-0.2441	0.7935	3.4772	-16.2927	-136.4996	43.3700	-227	-245	171	100770	0.46 
196.017	0.2798	0.0649	0.9639	0.1221	0.0000	0.0000	3.4937	-16.2817	-136.3458	43.3800	-229	-242	170	100771	0.46 
196.158	0.2734	0.0679	0.9741	-0.1221	-0.0610	-0.3052	3.4991	-16.2872	-136.1865	43.4100	-228	-242	170	100771	0.46 
196.162	0.2788	0.0562	0.9692	-0.5493	-2.4414	-0.5493	3.4717	-16.2817	-136.0712	43.4000	-224	-242	172	100771	0.46 
196.404	0.2686	0.0742	0.9751	0.2441	-0.3052	0.4272	3.4827	-16.3751	-136.1426	43.4300	-231	-244	174	100771	0.46 
196.453	0.2632	0.0649	0.9688	0.0610	1.2207	-1.0376	3.4772	-16.3916	-135.9613	43.4100	-229	-244	172	100771	0.46 
196.544	0.2466	0.0713	0.9756	1.0986	5.7373	5.9814	3.4937	-16.1829	-135.5823	43.4100	-230	-243	171	100771	0.46 
196.615	0.2661	0.0801	0.9692	-0.2441	7.3242	0.9155	3.4387	-15.7599	-135.2582	43.4100	-230	-242	171	100771	0.46 
196.778	0.2734	0.0884	0.9600	-1.5259	14.4043	4.1504	3.3398	-14.9579	-134.8901	43.4300	-229	-244	169	100772	0.46 
196.836	0.2910	0.0669	0.9492	0.3662	38.9404	1.3428	3.1476	-12.6123	-134.4122	43.4300	-229	-239	163	100771	0.46 
196.980	0.2197	0.0151	0.9482	3.1128	54.3823	-6.0425	3.3069	-7.9431	-134.2145	43.4400	-222	-240	155	100772	0.46 
197.039	0.0864	0.0444	0.9556	0.8545	68.0542	-7.5073	3.4497	-1.9940	-134.7308	43.4400	-209	-246	140	100771	0.46 
197.176	-0.0200	0.0825	1.0181	4.5776	90.6372	-3.4790	3.6969	6.1139	-135.4504	43.4400	-187	-247	130	100771	0.46 
197.259	-0.3159	0.0146	1.0742	-2.6855	125.6714	-45.1660	2.6971	16.9849	-137.8455	43.4700	-157	-253	122	100772	0.46 
197.362	-0.9941	-0.1436	1.4282	7.5684	68.4204	18.7988	3.3124	28.6469	-139.4879	43.4800	-117	-254	115	100771	0.46 
197.436	-0.9170	0.0107	1.2090	-8.1177	35.9497	3.1738	3.9276	31.8768	-140.6689	43.4400	-97	-259	111	100771	0.46 
197.608	-0.5537	0.0781	0.9404	-0.7324	-17.2119	3.1128	4.4000	31.0913	-142.0807	43.4400	-90	-262	109	100771	0.46 
197.673	-0.3408	0.0352	0.6538	-6.4697	-47.7295	3.1738	3.9441	27.1198	-143.7726	43.4300	-91	-263	107	100771	0.46 
197.782	-0.1455	0.0469	0.2197	6.6528	-29.6021	-1.7090	4.0649	22.1759	-145.7281	43.4400	-105	-262	110	100771	0.46 
197.846	-0.6279	0.1826	0.7915	2.1973	-38.0249	-0.3052	4.2462	21.8463	-148.3923	43.4100	-109	-264	111	100771	0.46 
197.970	-0.3516	0.0449	0.7480	-3.7842	-40.5273	14.2212	4.3341	18.1934	-149.3097	43.4000	-117	-263	113	100771	0.46 
198.044	-0.3247	0.0508	0.9365	0.1831	-18.8599	-0.9155	4.4275	16.1389	-149.3152	43.3900	-127	-262	115	100770	0.46 
198.174	-0.3154	0.0620	0.9688	-3.3569	-2.8687	3.5400	4.3121	15.4907	-150.1392	43.3900	-129	-264	116	100770	0.46 
198.243	-0.3022	0.0933	0.9131	-3.9063	-1.7090	-13.1226	3.9771	15.4523	-150.6775	43.4000	-132	-263	115	100771	0.46 
198.407	-0.2417	0.1055	0.9341	-2.7466	-0.9155	0.4883	3.8232	15.4138	-151.3696	43.4100	-130	-262	120	100770	0.46 
198.467	-0.2793	0.0913	0.9429	-1.8921	1.9531	0.0000	3.6639	15.5621	-151.7651	43.4300	-133	-263	119	100770	0.46 
198.628	-0.2515	0.0752	0.9263	0.7324	0.3052	-2.7466	3.6200	15.7709	-152.3804	43.4300	-130	-261	116	100770	0.46 
198.788	-0.2568	0.0737	0.9312	1.2817	3.5400	0.3662	3.6255	15.9961	-153.2043	43.4300	-130	-260	116	100770	0.46 
198.838	-0.2939	0.0332	0.9639	0.1831	0.8545	-0.3662	3.6530	16.2817	-153.6163	43.4300	-127	-261	116	100770	0.46 
198.863	-0.2896	0.0547	0.9375	0.0610	-1.6479	-2.6245	3.6475	16.2048	-154.1766	43.4300	-131	-261	114	100770	0.46 
199.020	-0.2734	0.0977	0.9404	-2.3804	0.0000	9.5215	3.7628	16.1829	-154.1766	43.4500	-127	-259	118	100770	0.46 
199.081	-0.2754	0.0342	0.9692	-0.6104	1.4648	12.0850	3.7683	16.3147	-153.3527	43.4600	-128	-262	117	100770	0.46 
199.237	-0.2720	0.0630	0.9565	0.0000	-0.4272	2.1362	3.7958	16.2543	-153.2043	43.4500	-130	-261	115	100770	0.46 
199.311	-0.2817	0.0806	0.9507	0.8545	2.0142	-0.2441	3.8727	16.2872	-153.4570	43.4600	-131	-261	115	100770	0.46 
199.404	-0.3125	0.0698	0.9712	-0.4883	3.9063	4.5776	3.9331	16.6553	-153.6932	43.4400	-131	-260	115	100769	0.46 
199.477	-0.2593	0.0469	0.9468	0.0000	0.3052	-0.1831	3.9880	16.6388	-153.6053	43.4600	-133	-257	114	100769	0.46 
199.684	-0.2993	0.0630	0.9663	-0.6104	-0.3052	-3.8452	3.9056	16.6827	-154.2480	43.4600	-132	-257	113	100769	0.46 
199.750	-0.2881	0.0557	0.9502	-0.3662	-0.5493	-2.6855	3.6804	16.6498	-154.9896	43.4600	-130	-259	116	100769	0.46 
199.856	-0.2930	0.0688	0.9531	-0.1831	1.8921	-0.3662	3.6200	16.7542	-155.4730	43.4600	-130	-260	112	100769	0.46 
200.000	-0.3081	0.0659	0.9688	-0.9155	-1.0986	0.2441	3.6035	16.8750	-155.7367	43.4800	-128	-258	113	100769	0.46 
200.060	-0.2866	0.0596	0.9482	-0.0610	-1.2817	2.8076	3.6475	16.7432	-155.7477	43.4800	-125	-260	111	100769	0.46 
200.100	-0.2910	0.0562	0.9570	-0.1831	-2.1362	1.0376	3.6365	16.6553	-155.8740	43.4700	-129	-258	114	100769	0.46 
200.283	-0.3027	0.0615	0.9531	-0.7324	0.1831	0.7935	3.6035	16.5948	-156.0663	43.4900	-129	-259	117	100769	0.46 
200.422	-0.3008	0.0557	0.9629	0.0000	0.2441	-0.2441	3.5760	16.6223	-156.2036	43.5000	-136	-260	114	100769	0.46 
200.478	-0.2866	0.0615	0.9478	0.0000	-1.3428	0.1221	3.5706	16.6113	-156.3959	43.4900	-135	-260	112	100769	0.46 
200.501	-0.2769	0.0645	0.9375	0.3052	-1.0376	0.0000	3.5815	16.5125	-156.5717	43.5000	-130	-256	112	100769	0.46 
200.675	-0.2925	0.0615	0.9492	-0.0610	-0.4883	0.1831	3.6035	16.4575	-156.7749	43.4900	-132	-259	113	100769	0.46 
200.730	-0.2900	0.0537	0.9565	0.6104	-1.6479	-0.7935	3.6090	16.3751	-156.9562	43.5200	-134	-258	114	100769	0.46 
200.830	-0.2910	0.0552	0.9507	0.3052	-2.1973	-0.0610	3.6530	16.2323	-157.1704	43.5100	-132	-255	116	100769	0.46 
200.922	-0.2759	0.0674	0.9565	-0.7324	-0.6104	0.4883	3.6310	16.1115	-157.2913	43.5100	-134	-256	116	100769	0.46 
201.046	-0.2759	0.0654	0.9604	-0.3052	-0.2441	0.0610	3.6310	16.0840	-157.3187	43.5100	-130	-256	118	100769	0.46 
201.120	-0.2837	0.0635	0.9648	-0.3662	-1.5259	0.2441	3.6475	16.0455	-157.4176	43.5100	-134	-261	117	100769	0.46 
201.273	-0.2764	0.0586	0.9619	-0.5493	-1.8921	0.2441	3.6310	15.8643	-157.4725	43.5200	-133	-263	115	100768	0.46 
201.443	-0.2778	0.0591	0.9556	0.0000	-3.1738	0.1831	3.5980	15.6775	-157.5439	43.5400	-135	-257	114	100768	0.46 
201.500	-0.2622	0.0776	0.9556	0.4272	-3.7842	3.2349	3.6530	15.3424	-157.5275	43.5500	-136	-259	115	100768	0.46 
201.535	-0.2534	0.0640	0.9570	-0.7324	0.6104	1.1597	3.7463	15.1062	-157.2803	43.5300	-140	-257	116	100768	0.46 
201.708	-0.2754	0.0742	0.9653	-1.0986	0.6714	1.4648	3.7244	15.1941	-157.1375	43.5500	-141	-259	113	100768	0.46 
201.870	-0.2515	0.0522	0.9492	-1.4648	-0.5493	1.8921	3.6255	15.1666	-156.9617	43.5600	-139	-256	114	100768	0.46 
201.872	-0.2578	0.0688	0.9604	-0.9155	0.1221	-0.3052	3.5651	15.1721	-156.9672	43.5700	-135	-257	111	100768	0.46 
201.937	-0.2627	0.0571	0.9551	0.0000	-1.2207	0.6714	3.5046	15.1501	-157.0001	43.5500	-138	-259	113	100768	0.46 
202.102	-0.2705	0.0566	0.9673	-0.1221	-0.7935	-0.1831	3.4772	15.1007	-157.0935	43.5700	-137	-256	114	100768	0.46 
202.242	-0.2681	0.0586	0.9614	0.0610	-0.3052	-1.6479	3.4442	15.0677	-157.2583	43.5800	-135	-258	118	100769	0.46 
202.246	-0.2700	0.0479	0.9561	-0.2441	-0.4272	-2.6855	3.3289	15.1447	-157.5275	43.6000	-138	-254	115	100768	0.46 
202.350	-0.2671	0.0581	0.9575	0.6714	-1.5869	-2.7466	3.2849	15.0732	-157.8296	43.5800	-134	-258	116	100769	0.46 
202.548	-0.2744	0.0635	0.9688	0.7935	-1.5259	-3.0518	3.2794	15.0623	-158.2196	43.5900	-134	-259	113	100768	0.46 
202.688	-0.2612	0.0718	0.9741	-0.9155	-2.0142	-1.0376	3.2739	14.8535	-158.4064	43.6100	-135	-258	114	100768	0.46 
202.736	-0.2695	0.0503	0.9731	0.0000	-1.1597	-0.5493	3.2300	14.6448	-158.3569	43.6000	-137	-258	115	100768	0.46 
202.758	-0.2759	0.0591	0.9644	0.7935	-4.6387	-3.2959	3.2300	14.4855	-158.6426	43.6200	-136	-257	117	100768	0.46 
202.923	-0.2266	0.0376	0.9463	-1.7700	-4.8828	-10.3149	3.1531	13.9966	-159.1425	43.6300	-136	-258	114	100768	0.46 
202.982	-0.3013	0.0742	0.9834	-2.0752	-7.4463	6.6528	2.8510	13.7384	-159.4226	43.6300	-133	-259	114	100768	0.46 
203.076	-0.2729	0.0142	0.9497	0.7935	-13.6108	-6.2866	2.7521	12.8430	-159.2688	43.6400	-140	-259	117	100767	0.46 
203.278	-0.2852	0.0659	0.8501	1.9531	-14.7705	-4.2725	2.6587	11.7059	-160.1642	43.6600	-139	-258	115	100767	0.46 
203.340	-0.2769	0.0674	0.5713	-15.1978	10.8032	-9.6436	2.2906	12.4695	-160.7684	43.6600	-137	-261	117	100767	0.46 
203.470	-0.1030	0.0444	0.6216	10.8643	32.0435	-22.0947	0.9778	14.4086	-162.8394	43.6400	-135	-259	113	100767	0.47 
203.532	-0.1675	0.0332	0.8540	-1.6479	33.8135	-12.6343	2.0050	18.0396	-163.5095	43.6400	-127	-260	111	100767	0.47 
203.706	-0.3018	-0.0859	0.9556	-11.7188	36.4380	-9.2773	1.4008	19.9292	-163.7622	43.6400	-122	-261	113	100767	0.46 
203.759	-0.4434	-0.0063	1.1494	0.5493	2.3804	10.7422	0.5273	20.6158	-164.1742	43.6500	-121	-260	112	100767	0.46 
203.906	-0.3076	0.0063	1.1719	3.0518	-76.9653	18.9209	1.3293	15.5402	-162.6746	43.6400	-135	-256	110	100768	0.46 
203.957	0.0181	0.0439	0.7202	12.6343	-143.1885	14.5874	2.5433	3.8947	-160.4993	43.6500	-165	-252	125	100768	0.46 
204.077	0.1216	0.1123	0.9409	6.1646	-63.1104	12.3291	3.5431	-4.5593	-158.1537	43.6600	-196	-248	138	100769	0.46 
204.151	0.1904	0.0889	1.0171	-5.9814	-71.4111	10.8643	3.2629	-11.5192	-156.0718	43.6400	-216	-245	152	100770	0.46 
204.287	0.5635	0.0391	0.9414	2.5635	-5.6152	27.5269	2.9004	-18.0615	-153.7482	43.6500	-233	-241	169	100770	0.46 
204.376	0.1113	0.0112	0.8823	0.9766	-21.3623	2.6855	2.4390	-19.2096	-151.1829	43.6400	-236	-238	176	100770	0.46 
204.514	0.4219	0.0566	0.9141	1.2817	-21.7285	-2.0142	2.6038	-21.1542	-150.3259	43.6500	-235	-238	182	100770	0.46 
204.574	0.3403	0.0337	0.9351	-1.4038	2.4414	-7.3853	2.8290	-21.7694	-149.6613	43.6400	-240	-239	187	100770	0.46 
204.691	0.3999	0.0562	0.9487	-0.4883	-9.3994	-2.1362	2.9279	-22.0111	-149.1174	43.6400	-236	-241	189	100770	0.46 
204.760	0.3740	0.0537	0.9243	0.4272	-3.2959	1.4038	2.9388	-22.8516	-148.0133	43.6200	-239	-241	186	100770	0.46 
204.944	0.3994	0.0522	0.9248	-0.0610	-5.3711	1.3428	2.9224	-23.0768	-146.9092	43.6400	-241	-240	188	100770	0.46 
204.999	0.3872	0.0435	0.9170	-1.4648	-2.8076	1.4648	2.7356	-23.4668	-145.7391	43.6600	-239	-239	190	100770	0.46 
205.098	0.3984	0.0298	0.9199	-0.7935	-1.7700	-0.1831	2.5598	-23.6536	-144.8712	43.6500	-241	-244	190	100770	0.46 
205.148	0.3999	0.0391	0.9175	-0.1221	-1.1597	0.3052	2.4719	-23.7140	-143.9813	43.6600	-238	-242	190	100770	0.46 
205.368	0.4063	0.0469	0.9136	0.3662	-0.6104	0.1221	2.4884	-23.7524	-143.1683	43.6500	-240	-237	190	100770	0.46 
205.426	0.3857	0.0391	0.9253	0.0610	-0.4883	0.1221	2.4939	-23.7250	-142.3663	43.6700	-240	-237	187	100770	0.46 
205.518	0.4058	0.0366	0.9170	0.1831	-0.9766	0.1831	2.4994	-23.8074	-141.6412	43.6700	-241	-239	191	100770	0.46 
205.582	0.4155	0.0596	0.9058	-1.5869	0.1831	0.5493	2.4060	-23.9282	-140.8502	43.6700	-241	-238	191	100771	0.46 
205.764	0.4019	0.0356	0.9165	-0.1221	-1.8921	0.1831	2.3346	-23.9722	-140.2625	43.6600	-243	-239	187	100771	0.46 
205.929	0.4033	0.0337	0.9194	0.2441	-1.2207	0.1831	2.3236	-24.0710	-139.6527	43.6600	-241	-237	189	100771	0.46 
205.981	0.4131	0.0449	0.9136	-0.9155	0.0000	-2.3193	2.3566	-24.1370	-139.1913	43.6600	-239	-237	191	100771	0.46 
205.992	0.4048	0.0371	0.9224	-0.4883	-1.3428	-0.9155	2.2961	-24.0381	-138.7518	43.6700	-241	-238	190	100771	0.46 
206.115	0.4082	0.0347	0.9170	-0.2441	-0.4883	-0.3052	2.2797	-24.0656	-138.2959	43.6800	-238	-237	191	100772	0.46 
206.181	0.4082	0.0410	0.9165	-0.0610	-0.5493	-0.2441	2.2797	-24.1150	-137.8235	43.6800	-238	-237	188	100771	0.46 
206.380	0.4116	0.0410	0.9116	0.0610	-0.8545	0.2441	2.3071	-24.1644	-137.3950	43.6700	-238	-237	191	100772	0.46 
206.551	0.4028	0.0376	0.9204	0.0000	-0.1831	-0.0610	2.3126	-24.1699	-136.9666	43.6800	-241	-240	191	100771	0.46 
206.592	0.4058	0.0405	0.9150	-0.1831	-0.1831	-0.0610	2.3126	-24.1864	-136.5820	43.6800	-237	-238	192	100771	0.46 
206.603	0.4082	0.0381	0.9160	-0.1221	-1.0986	-0.3662	2.3126	-24.2303	-136.2250	43.6900	-242	-236	191	100771	0.46 
206.747	0.3960	0.0371	0.9268	-0.3662	0.0610	-0.4883	2.2906	-24.1974	-135.8899	43.7300	-243	-238	194	100771	0.46 
206.812	0.4063	0.0430	0.9185	-0.2441	-0.1221	0.1831	2.2852	-24.2084	-135.5713	43.7200	-238	-237	193	100771	0.46 
206.950	0.4150	0.0410	0.9092	-0.3662	-2.2583	-0.0610	2.2742	-24.3292	-135.2362	43.7000	-241	-235	191	100771	0.46 
207.020	0.4126	0.0337	0.9170	-0.1221	-2.2583	0.0000	2.2577	-24.4281	-134.9670	43.7100	-238	-241	189	100771	0.46 
207.170	0.3994	0.0396	0.9243	0.0000	-1.2817	-0.1831	2.2522	-24.5270	-134.6814	43.7300	-240	-238	190	100771	0.46 
207.322	0.4165	0.0405	0.9185	-0.0610	-0.1221	-0.2441	2.2687	-24.6698	-134.4232	43.7300	-240	-234	193	100771	0.46 
207.381	0.4204	0.0410	0.9131	-0.1221	-1.4038	0.0000	2.2852	-24.7632	-134.1650	43.7300	-241	-238	193	100771	0.46 
207.532	0.4189	0.0391	0.9141	-0.0610	-0.6714	0.1221	2.2852	-24.8401	-133.9233	43.7300	-239	-240	195	100771	0.46 
207.592	0.4238	0.0410	0.9092	-0.0610	1.3428	0.1831	2.2797	-24.8621	-133.6926	43.7400	-239	-240	199	100771	0.46 
207.762	0.4238	0.0381	0.9058	-0.1831	-1.4038	-0.0610	2.2687	-24.8181	-133.4619	43.7600	-237	-240	190	100771	0.46 
207.822	0.4111	0.0410	0.9243	-0.2441	-1.1597	0.0000	2.2687	-24.8566	-133.2697	43.7600	-241	-237	194	100771	0.46 
207.921	0.4199	0.0415	0.9111	-0.1221	-0.1831	0.0610	2.2632	-24.9994	-133.0774	43.7500	-240	-238	194	100771	0.46 
207.985	0.4219	0.0381	0.9131	0.6714	0.0610	-0.4272	2.2906	-25.0159	-132.9016	43.7600	-244	-239	194	100771	0.46 
208.189	0.3569	0.0215	0.9795	1.0986	1.4648	0.7935	2.3401	-24.8456	-132.6819	43.7700	-239	-240	192	100771	0.46 
208.240	0.3140	0.0200	0.9307	0.3662	20.2026	-4.8218	2.3566	-24.9774	-132.1820	43.7800	-243	-240	193	100771	0.46 
208.353	0.4277	0.1245	0.8931	0.7324	13.0005	0.0000	2.4005	-23.8129	-132.3743	43.7800	-241	-239	192	100771	0.46 
208.422	0.4600	0.0210	0.9053	1.7090	27.8931	2.9907	2.5708	-22.1265	-131.4899	43.7900	-239	-238	187	100770	0.46 
208.528	0.3848	0.0645	0.9146	-1.6479	50.1099	-4.8218	2.3895	-18.4625	-131.6107	43.8000	-234	-240	183	100770	0.46 
208.588	0.2578	0.0283	0.9595	1.3428	64.9414	-9.2163	2.5049	-12.9968	-132.0007	43.7900	-226	-239	169	100770	0.46 
208.799	0.1831	0.0483	0.9307	-0.3662	69.3359	-6.5308	2.5378	-6.6797	-132.6379	43.8000	-215	-243	153	100771	0.46 
208.953	0.1504	-0.0396	0.8135	-0.6104	112.0605	-14.5874	2.3621	1.8567	-133.3356	43.7900	-194	-246	139	100771	0.46 
209.018	-0.8311	0.4780	1.5190	6.8970	206.3599	-87.6465	0.3131	19.1547	-140.0977	43.8000	-146	-252	119	100771	0.46 
209.030	-0.5571	-0.1763	1.0742	3.6011	2.9907	-28.6865	1.0437	25.3070	-142.8937	43.8100	-100	-261	116	100771	0.46 
209.168	-0.7393	0.0005	1.2349	-0.8545	-8.9111	-0.0610	1.4612	26.6638	-145.7007	43.7900	-85	-265	118	100770	0.46 
209.232	-0.2813	0.0449	0.6680	-0.0610	-15.0146	10.8032	1.9501	24.1589	-146.4478	43.7800	-87	-266	117	100770	0.46 
209.338	-0.2183	0.0059	0.4014	-3.2349	-51.9409	6.1646	2.4115	20.3961	-146.8378	43.7400	-94	-266	114	100770	0.46 
209.422	-0.4697	0.0020	0.6655	8.1177	-32.4707	23.1323	3.0597	17.3859	-147.2168	43.7400	-105	-264	114	100769	0.46 
209.632	-0.4434	0.1304	0.9365	-6.0425	-26.0620	38.6353	4.3011	15.5017	-145.7501	43.7400	-116	-263	113	100769	0.46 
209.805	-0.2510	-0.0830	0.9604	-4.6387	-1.4648	5.0659	3.6639	13.7274	-144.3988	43.7300	-130	-261	115	100769	0.46 
209.861	-0.2754	-0.0088	0.8643	0.1221	14.5264	-12.3901	3.3124	14.1064	-145.5194	43.7600	-134	-260	115	100768	0.46 
209.873	-0.2090	0.1313	0.8345	-2.5024	4.6997	-23.4375	3.3069	15.3204	-147.8925	43.7400	-131	-258	115	100768	0.46 
209.972	-0.2974	0.0488	0.9595	3.9063	2.5635	-1.0376	3.3838	16.3586	-148.9307	43.7500	-126	-262	115	100768	0.46 
210.038	-0.3389	0.0444	1.0122	-0.2441	-2.9907	8.6060	3.6255	16.9189	-149.6448	43.7500	-124	-261	114	100767	0.46 
210.239	-0.2969	0.0156	1.0029	-1.0376	0.0000	-3.8452	3.4827	16.5894	-150.0897	43.7500	-122	-261	118	100767	0.46 
210.383	-0.3394	0.0596	0.9707	0.6104	3.4790	-4.8828	3.3728	16.9135	-151.1664	43.7600	-124	-262	112	100767	0.46 
210.437	-0.3003	0.0728	0.9453	0.3662	-1.4038	-5.2490	3.1476	16.8860	-152.4353	43.7600	-124	-263	114	100767	0.47 
210.449	-0.2935	0.0254	0.9243	-1.5259	-0.8545	0.0000	3.0707	16.7267	-153.0286	43.7700	-124	-262	112	100767	0.46 
210.623	-0.2988	0.0317	0.9404	2.2583	-1.0376	-2.0142	2.9443	16.7981	-153.7811	43.7700	-119	-262	115	100767	0.46 
210.800	-0.2710	0.0732	0.9243	0.1831	3.5400	-5.1270	2.9224	16.8970	-154.7369	43.7800	-120	-262	116	100767	0.47 
210.843	-0.3237	0.0552	0.9771	0.0000	1.6479	-0.2441	2.9004	17.2815	-155.4565	43.7900	-120	-263	115	100767	0.46 
210.865	-0.3096	0.0425	0.9521	0.2441	-1.8311	2.1973	2.9553	17.2540	-155.7257	43.8100	-119	-263	113	100767	0.47 
211.003	-0.3086	0.0615	0.9556	0.0610	-1.9531	1.0376	3.0377	16.9958	-156.0718	43.7900	-118	-265	115	100767	0.46 
211.062	-0.2827	0.0479	0.9395	-0.9766	0.4272	2.9907	3.1366	16.8860	-156.0718	43.8000	-122	-264	117	100767	0.46 
211.196	-0.2959	0.0576	0.9497	-0.1221	-2.1362	2.2583	3.1256	16.9080	-156.1981	43.7900	-124	-262	118	100767	0.46 
211.270	-0.2783	0.0532	0.9502	-0.6104	-1.8311	-0.9766	3.0487	16.7157	-156.5222	43.8300	-126	-265	116	100767	0.47 
211.400	-0.2900	0.0459	0.9595	-0.3662	-2.6855	0.5493	3.0542	16.5454	-156.7694	43.8300	-124	-266	119	100767	0.46 
211.476	-0.2920	0.0415	0.9604	-0.3052	-3.4790	0.7935	2.9938	16.3092	-157.0605	43.8200	-122	-264	118	100767	0.47 
211.652	-0.2891	0.0640	0.9639	-0.4883	-2.3193	-0.1831	2.9608	16.0181	-157.3242	43.8300	-125	-268	117	100767	0.47 
211.779	-0.2686	0.0410	0.9473	-0.5493	-1.4038	4.2114	2.9443	15.8917	-157.3187	43.8200	-124	-262	114	100767	0.46 
211.834	-0.2778	0.0342	0.9585	0.1221	-0.3052	1.5259	2.9388	15.8203	-157.2968	43.8400	-125	-260	116	100768	0.46 
211.892	-0.2808	0.0518	0.9644	0.0000	-2.1362	-0.5493	2.9388	15.7544	-157.4945	43.8300	-126	-262	114	100768	0.46 
212.087	-0.2656	0.0522	0.9590	0.0000	-1.7700	0.3052	2.9224	15.5292	-157.7472	43.8300	-128	-263	119	100768	0.46 
212.154	-0.2671	0.0586	0.9541	0.1831	-0.2441	1.6479	2.9718	15.5621	-157.7637	43.8600	-128	-262	113	100768	0.46 
212.250	-0.2642	0.0474	0.9561	0.5493	2.1973	5.8594	3.1421	15.5951	-157.4506	43.8400	-128	-262	114	100768	0.46 
212.384	-0.2837	0.0522	0.9614	-0.3662	-0.3052	0.6104	3.2190	15.7104	-157.3627	43.8500	-128	-264	114	100768	0.46 
212.447	-0.2876	0.0513	0.9683	-1.2207	1.7090	1.3428	3.1696	15.8203	-157.3901	43.8500	-128	-260	116	100768	0.46 
212.500	-0.2847	0.0430	0.9722	0.0610	0.4883	0.1831	3.0762	15.9631	-157.5055	43.8500	-126	-259	115	100768	0.46 
212.792	-0.2925	0.0527	0.9736	0.0000	-1.0376	0.5493	3.1366	15.9302	-157.6593	43.8700	-128	-263	115	100767	0.46 
212.794	-0.2627	0.0640	0.9473	-0.7935	0.1831	1.8921	3.1256	15.7928	-157.7856	43.8600	-127	-263	113	100768	0.46 
212.857	-0.2686	0.0527	0.9482	0.0000	-0.1831	1.1597	3.1201	15.7983	-157.7252	43.8500	-126	-260	117	100767	0.46 
212.915	-0.2930	0.0557	0.9668	0.7935	0.5493	-3.0518	3.1421	15.8148	-157.9614	43.8600	-129	-260	116	100767	0.46 
213.107	-0.2817	0.0576	0.9536	0.3662	-1.0986	-2.0752	3.1311	15.8093	-158.3899	43.8700	-129	-261	113	100767	0.47 
213.250	-0.2764	0.0654	0.9473	-0.1221	-0.9766	0.6714	3.1586	15.7983	-158.5382	43.8700	-129	-261	118	100767	0.47 
213.299	-0.2861	0.0522	0.9585	-0.1221	-0.9155	0.6104	3.1750	15.7379	-158.5327	43.8800	-126	-261	116	100767	0.47 
213.406	-0.2822	0.0435	0.9570	0.4883	-2.2583	-0.6714	3.1696	15.6116	-158.7085	43.9000	-125	-261	116	100767	0.47 
213.475	-0.2764	0.0532	0.9658	0.6104	-1.5869	-0.3052	3.1970	15.4907	-158.8678	43.8900	-128	-258	118	100767	0.46 
213.623	-0.2749	0.0586	0.9585	0.2441	-1.2207	-0.1831	3.2410	15.3918	-158.9777	43.9000	-128	-262	117	100767	0.47 
213.676	-0.2861	0.0659	0.9688	0.4883	-2.8076	-0.6104	3.2629	15.2545	-159.0930	43.9100	-128	-262	121	100767	0.46 
213.731	-0.2705	0.0669	0.9702	1.5259	-7.6294	0.3662	3.3838	14.6997	-159.1974	43.9100	-129	-264	115	100767	0.47 
214.019	-0.3452	0.0625	0.9819	0.0000	-10.8643	3.9673	3.5486	14.0460	-159.1534	43.9100	-133	-267	117	100767	0.46 
214.020	-0.3594	0.0420	0.9263	1.4648	-26.3672	-1.3428	3.5760	12.5024	-159.2743	43.9200	-135	-261	122	100767	0.47 
214.081	-0.2339	0.0645	0.6738	13.4888	-21.0571	14.5264	4.3341	11.0687	-159.2908	43.9300	-142	-264	121	100767	0.47 
214.275	-0.2529	0.0669	0.5698	1.2817	83.3740	12.8784	6.1578	14.0021	-157.0056	43.9400	-145	-262	124	100767	0.47 
214.329	-0.2969	0.1665	0.6890	7.5684	46.9360	39.4287	7.6959	19.0833	-154.9237	43.9300	-140	-263	118	100767	0.46 
214.441	-0.2363	0.2261	0.6597	-3.2349	13.6719	-27.3438	7.8772	21.6046	-152.9956	43.9100	-139	-261	115	100768	0.46 
214.507	0.0181	0.1934	0.7104	-19.1650	-37.0483	34.4849	8.2617	21.8573	-150.8533	43.9200	-142	-255	113	100768	0.46 
214.688	-0.1553	0.0137	1.1294	-0.2441	-116.1499	-13.9160	8.9319	16.7542	-148.2605	43.9100	-165	-243	114	100768	0.46 
214.826	0.5146	0.0967	0.7280	10.3760	-141.9067	-7.6904	8.5913	4.2902	-150.4962	43.9100	-188	-237	125	100768	0.46 
214.870	0.2324	0.2432	0.8721	-14.1602	-80.3223	-10.4370	8.2013	-4.1309	-151.9684	43.8900	-211	-239	145	100768	0.46 
214.884	0.3545	0.1392	0.9907	-18.1885	-28.1372	15.8081	7.0752	-10.5524	-150.2875	43.9000	-224	-231	160	100769	0.46 
215.106	-0.0210	0.0933	1.1904	-3.8452	-29.2969	4.8828	5.6140	-12.9858	-149.2383	43.8800	-234	-230	165	100769	0.46 
215.239	0.2739	-0.1035	0.9316	-8.9111	-20.2026	22.0947	4.5209	-15.7104	-147.0026	43.8800	-238	-228	173	100770	0.46 
215.287	0.2686	0.0098	0.9727	-4.5166	0.1831	9.0332	3.1311	-16.5784	-144.4427	43.8800	-247	-219	174	100770	0.46 
215.301	0.2876	0.0400	0.9663	0.3662	-6.5918	1.0986	2.9443	-16.7432	-143.1573	43.8700	-246	-216	177	100770	0.46 
215.446	0.2739	0.0522	0.9600	-1.6479	1.8921	-1.8311	2.8784	-17.1222	-142.3663	43.8700	-248	-216	177	100770	0.46 
215.505	0.3003	0.0640	0.9541	-2.0142	-6.8359	-10.3760	2.8894	-17.1222	-142.0038	43.8800	-248	-217	175	100770	0.46 
215.729	0.2568	0.0430	0.9785	-1.2207	1.2207	-1.0376	2.8125	-17.1936	-141.4160	43.8700	-247	-219	176	100770	0.46 
215.866	0.2832	0.0444	0.9697	0.0000	-0.8545	1.4648	2.6642	-17.1552	-140.4712	43.8500	-247	-217	178	100770	0.46 
215.917	0.2813	0.0391	0.9688	0.1831	1.7090	1.6479	2.5653	-17.1442	-139.4934	43.8600	-249	-219	179	100770	0.46 
215.930	0.2930	0.0454	0.9600	0.1831	-0.9155	0.7935	2.5214	-17.1057	-138.6914	43.8500	-249	-217	177	100770	0.46 
216.102	0.2866	0.0405	0.9663	-0.3662	-4.8828	-0.0610	2.4994	-17.2540	-138.0652	43.8600	-249	-216	177	100770	0.46 
216.166	0.2915	0.0405	0.9526	-0.3662	-0.5493	0.5493	2.4500	-17.5726	-137.3511	43.8800	-250	-215	178	100770	0.46 
216.260	0.2734	0.0366	0.9785	-1.8311	2.6245	1.3428	2.3346	-17.4353	-136.5381	43.8800	-249	-214	177	100770	0.46 
216.320	0.2983	0.0308	0.9575	-1.0376	0.2441	0.7324	2.1533	-17.4463	-135.9229	43.8700	-251	-214	175	100770	0.46 
216.515	0.3032	0.0269	0.9546	-0.1831	-0.3052	-0.2441	2.0325	-17.4738	-135.3571	43.8600	-248	-214	177	100770	0.46 
216.575	0.2959	0.0342	0.9580	0.1831	-1.0376	-0.4883	2.0380	-17.5012	-134.9011	43.8500	-249	-215	178	100770	0.46 
216.672	0.2964	0.0396	0.9575	0.1831	-1.2207	-0.2441	2.0874	-17.5836	-134.5111	43.8600	-251	-216	178	100770	0.46 
216.752	0.3003	0.0313	0.9585	0.4272	-0.3662	-0.4883	2.1094	-17.6385	-134.1266	43.8500	-251	-216	177	100770	0.46 
216.943	0.3003	0.0381	0.9561	0.0000	-0.8545	-0.1221	2.1478	-17.7155	-133.7585	43.8500	-253	-215	179	100770	0.46 
217.004	0.2920	0.0391	0.9692	-0.3052	-1.5869	0.0000	2.1423	-17.7704	-133.3850	43.8500	-253	-215	178	100770	0.46 
217.101	0.3101	0.0396	0.9517	-1.2817	-2.8076	-1.4038	2.0984	-17.9297	-133.0994	43.8600	-249	-216	177	100770	0.46 
217.167	0.2998	0.0376	0.9609	-0.5493	-1.5869	0.8545	2.0544	-18.0066	-132.7478	43.8600	-252	-214	178	100770	0.46 
217.320	0.3101	0.0332	0.9482	-0.1221	-2.0752	1.1597	1.9995	-18.1989	-132.3029	43.8600	-253	-212	178	100770	0.46 
217.375	0.3081	0.0352	0.9546	0.0000	-1.2817	0.7935	1.9830	-18.3197	-131.8964	43.8700	-253	-215	181	100770	0.46 
217.500	0.3486	0.0283	0.9678	1.1597	-7.5073	1.7700	1.9611	-18.5614	-131.5997	43.8800	-250	-213	180	100770	0.46 
217.583	0.3213	0.0386	0.9458	0.4883	-2.7466	0.6104	2.0215	-18.8251	-131.1273	43.8800	-252	-213	180	100769	0.46 
217.756	0.3164	0.0376	0.9551	-0.0610	-1.0376	0.2441	2.0490	-18.8580	-130.7922	43.8800	-252	-213	184	100769	0.46 
217.805	0.3208	0.0396	0.9482	-0.4272	-0.1831	0.3052	2.0160	-19.0228	-130.4956	43.8800	-252	-214	183	100770	0.46 
217.933	0.3257	0.0322	0.9468	0.0000	-1.5869	0.4883	1.9885	-19.1327	-130.2429	43.8900	-251	-213	181	100769	0.46 
218.114	0.3262	0.0352	0.9521	0.3052	-0.7324	0.5493	2.0050	-19.2041	-129.9738	43.8900	-253	-211	184	100769	0.46 
218.171	0.3262	0.0376	0.9517	-0.1831	-0.6104	0.4883	2.0105	-19.2590	-129.7266	43.9000	-252	-212	185	100769	0.46 
218.351	0.3252	0.0337	0.9512	-0.1831	-0.4883	0.4883	1.9775	-19.2865	-129.4958	43.9100	-250	-213	186	100770	0.46 
218.518	0.3203	0.0347	0.9521	-0.1221	0.0000	0.3662	1.9501	-19.2865	-129.2706	43.9100	-251	-211	185	100770	0.46 
218.578	0.3281	0.0322	0.9463	-0.1221	-1.2817	-0.0610	1.9501	-19.2700	-129.1058	43.9400	-255	-213	184	100770	0.46 
218.578	0.3271	0.0415	0.9478	-0.4883	-0.3662	0.0610	1.9336	-19.3359	-128.9685	43.9200	-251	-216	183	100770	0.46 
218.746	0.3262	0.0322	0.9507	-0.1831	-1.2817	0.3052	1.9226	-19.4019	-128.8861	43.9300	-251	-214	181	100770	0.46 
218.891	0.3291	0.0337	0.9614	-0.1831	-2.1973	0.3662	1.9061	-19.5062	-128.7268	43.9400	-255	-211	183	100770	0.46 
218.942	0.3140	0.0400	0.9512	-0.1221	0.3052	0.4272	1.9336	-19.5831	-128.6005	43.9400	-251	-216	180	100770	0.46 
218.955	0.4321	0.0640	0.8496	-1.7090	4.8828	0.5493	1.9116	-19.6161	-128.4851	43.9400	-253	-211	186	100770	0.46 
219.157	0.3081	-0.0474	0.9790	0.4883	15.6250	-17.8833	1.9171	-17.4847	-129.0399	43.9500	-251	-214	179	100770	0.46 
219.297	0.2930	0.0439	0.9507	1.1597	25.6958	-11.1084	2.6642	-14.9799	-130.9955	43.9700	-246	-219	177	100770	0.46 
219.345	0.3247	0.0923	0.9141	0.6714	36.2549	-17.3340	2.9773	-12.3541	-132.1875	43.9600	-237	-223	168	100770	0.46 
219.357	0.2227	0.0234	0.9150	0.1221	67.8711	-8.4229	3.2520	-7.3718	-132.9510	43.9600	-231	-228	153	100770	0.46 
219.597	0.0669	0.0181	0.8882	-3.2349	107.3608	-16.7847	3.0872	1.1371	-133.9124	43.9700	-212	-232	141	100770	0.46 
219.750	-0.2002	0.0093	0.9956	-7.8125	119.5068	-19.2261	2.6257	11.7938	-135.9613	43.9600	-186	-240	124	100771	0.46 
219.899	-0.5059	0.1104	1.1885	-10.0708	93.8721	-8.3618	1.5656	24.2853	-138.4497	43.9800	-143	-245	111	100771	0.46 
219.905	-0.8276	0.0605	1.1733	3.7231	-2.9297	-20.5688	0.5603	30.1904	-141.7456	43.9800	-105	-246	107	100770	0.46 
219.962	-0.9155	0.0205	1.2168	2.6855	-5.7373	-14.0381	-0.4449	31.3879	-145.5359	43.9800	-94	-249	105	100771	0.46 
219.997	-0.3911	0.0303	0.7100	-16.9067	-48.2788	-18.8599	-1.4282	27.9492	-148.3759	43.9700	-93	-249	101	100771	0.46 
220.199	-0.3032	-0.1201	0.5874	7.6294	-58.5938	4.3945	-1.7688	22.8790	-148.9966	43.9400	-103	-247	98	100771	0.46 
220.362	-0.3286	-0.0913	0.4087	23.4375	-70.4956	-34.3018	-0.8844	17.3035	-152.1387	43.9000	-114	-250	102	100770	0.46 
220.425	-0.3809	0.0854	0.8726	16.7236	-33.2642	-17.1509	0.3845	14.3317	-156.2695	43.8900	-119	-259	111	100770	0.46 
220.437	-0.2656	-0.0703	0.8887	12.6953	-11.3525	-20.3857	1.0712	12.4310	-158.3624	43.8800	-119	-265	113	100769	0.46 
220.519	-0.3008	0.0801	0.9727	6.6528	-6.6528	-31.8604	1.3403	12.3267	-161.6913	43.8700	-117	-272	120	100769	0.46 
220.596	-0.2158	0.0430	0.9668	-0.5493	-0.3662	-6.3477	1.4337	12.0300	-163.3612	43.8800	-113	-272	121	100769	0.46 
220.804	-0.2627	0.0347	0.9829	0.6714	7.7515	0.0610	1.4832	12.4365	-163.3667	43.8800	-109	-273	121	100768	0.46 
220.959	-0.2188	-0.0220	0.9482	1.0986	0.6714	2.0752	1.5930	12.7222	-163.0811	43.8800	-108	-274	120	100768	0.46 
221.006	-0.2432	0.0259	0.9697	0.9766	-0.1221	-6.9580	1.6479	12.8870	-163.4601	43.8700	-106	-274	121	100768	0.46 
221.017	-0.2158	0.0317	0.9624	-0.6714	-2.2583	0.9766	1.6699	12.8430	-163.8226	43.8800	-108	-274	122	100768	0.46 
221.169	-0.2100	0.0229	0.9619	1.3428	1.9531	2.8076	1.6699	12.8485	-163.6578	43.8800	-105	-272	123	100768	0.46 
221.222	-0.2300	0.0454	0.9834	0.0610	0.9766	10.4370	1.9501	13.0682	-162.9932	43.9000	-108	-272	123	100768	0.46 
221.374	-0.2485	0.0649	1.0244	-2.3193	-3.0518	14.5264	2.2028	13.0737	-161.6418	43.9100	-111	-273	122	100768	0.46 
221.423	-0.2056	0.0249	0.9790	-3.6621	7.6294	26.7944	2.3730	12.7771	-159.6478	43.9100	-116	-270	120	100768	0.46 
221.571	-0.2319	0.0073	1.0024	-1.6479	1.2817	19.3481	2.6202	13.1781	-157.4451	43.9100	-117	-269	120	100768	0.46 
221.637	-0.2051	0.0278	0.9658	-1.0376	2.9297	13.6108	2.8345	13.2550	-156.0333	43.9300	-125	-265	117	100767	0.46 
221.776	-0.2173	0.0420	0.9829	-0.6104	3.9063	7.3853	2.8894	13.5791	-155.2808	43.9300	-126	-265	120	100767	0.46 
221.835	-0.2471	0.0850	0.9727	-1.7700	0.4883	9.3994	3.0487	13.6780	-154.8523	43.9200	-129	-262	118	100767	0.47 
221.990	-0.2231	0.0166	0.9658	-2.7466	2.0752	14.0991	3.1915	13.5736	-153.6438	43.9500	-135	-261	119	100767	0.47 
222.043	-0.2476	0.0181	0.9663	-0.3052	3.6011	-6.4087	2.9443	13.8757	-153.6877	43.9400	-131	-260	120	100767	0.46 
222.216	-0.2783	0.0503	0.9712	1.9531	-0.3052	-6.5308	2.8235	14.2493	-154.8578	43.9400	-133	-260	113	100767	0.46 
222.393	-0.2637	0.0811	0.9580	-1.0986	0.6714	1.0986	2.9059	14.4141	-155.4675	43.9400	-129	-262	118	100767	0.47 
222.394	-0.2598	0.0571	0.9639	-1.8921	0.0000	9.9487	3.0267	14.4470	-155.0391	43.9300	-131	-265	118	100767	0.46 
222.455	-0.2397	0.0371	0.9619	-2.5635	1.0986	6.3477	3.0212	14.4690	-154.3469	43.9400	-132	-260	114	100767	0.47 
222.607	-0.2456	0.0415	0.9609	-0.7935	1.4648	0.0610	2.9004	14.6118	-154.2865	43.9400	-135	-261	114	100767	0.47 
222.746	-0.2690	0.0430	0.9634	0.5493	1.8311	-2.9907	2.8400	14.8041	-154.7095	43.9300	-133	-257	114	100767	0.47 
222.812	-0.2578	0.0449	0.9604	-0.5493	0.3052	-2.1973	2.7850	14.9304	-155.2368	43.9300	-132	-258	112	100767	0.47 
223.007	-0.2646	0.0342	0.9683	-2.0752	1.2817	1.3428	2.6147	15.1666	-155.4840	43.9400	-132	-260	114	100767	0.47 
223.062	-0.2798	0.0459	0.9731	-1.0986	0.3052	-0.6714	2.4609	15.3809	-155.7257	43.9500	-131	-259	115	100767	0.47 
223.151	-0.2671	0.0522	0.9673	0.0000	-3.1128	-3.6011	2.3346	15.2930	-156.2036	43.9600	-127	-259	111	100767	0.47 
223.218	-0.2793	0.0532	0.9697	-0.1221	-5.5542	0.0000	2.3181	14.8535	-156.6321	43.9600	-130	-259	116	100767	0.47 
223.409	-0.2324	0.0449	0.9468	-1.0376	-1.7700	4.8218	2.3785	14.4690	-156.4618	43.9700	-131	-259	116	100767	0.47 
223.463	-0.2432	0.0459	0.9541	-1.3428	0.3052	5.6763	2.3950	14.4690	-156.0773	43.9600	-133	-256	111	100766	0.47 
223.579	-0.2573	0.0347	0.9624	-0.3662	1.8311	6.2256	2.4939	14.6008	-155.5829	43.9700	-135	-256	116	100766	0.47 
223.637	-0.2803	0.0439	0.9614	-1.2817	1.3428	8.2397	2.6093	14.7821	-155.0665	43.9800	-134	-255	116	100766	0.47 
223.816	-0.2651	0.0093	0.9229	-3.2959	-4.6387	6.8970	2.5323	14.8206	-154.3524	43.9700	-138	-256	111	100766	0.47 
223.870	-0.2515	0.0195	0.9541	0.0000	2.6855	-5.9814	2.3126	14.8535	-154.5392	43.9800	-138	-257	112	100766	0.47 
223.984	-0.3003	0.0571	0.9556	0.3662	3.2959	-1.0986	2.3236	15.2765	-155.1489	43.9800	-139	-255	112	100766	0.47 
224.054	-0.4111	0.0508	0.9492	-3.0518	2.5024	6.1646	2.3730	15.8862	-155.0940	43.9700	-138	-258	114	100766	0.47 
224.251	-0.2935	0.0786	0.6504	-6.4697	4.2725	9.7656	2.1423	15.8698	-154.8523	43.9900	-137	-254	110	100766	0.47 
224.305	-0.4766	-0.0405	0.7979	-33.3252	42.9077	36.7432	1.6370	22.0276	-152.3639	43.9800	-135	-247	103	100766	0.47 
224.390	-0.1670	-0.0103	0.4849	0.4883	28.1372	1.7090	-0.1428	25.0214	-150.9686	43.9900	-132	-241	96	100766	0.47 
224.456	-0.2998	-0.0771	0.7646	9.3384	-1.0986	-0.6104	0.6207	28.2458	-150.7764	44.0000	-128	-235	92	100767	0.47 
224.604	-0.4917	-0.0273	0.8315	-1.8921	24.2920	27.8320	1.8896	29.4653	-150.6720	43.9900	-126	-240	95	100767	0.47 
224.680	-0.5220	0.0830	1.0664	-19.0430	-37.2314	-34.1187	-0.2747	27.0154	-152.9352	43.9800	-130	-237	92	100767	0.46 
224.834	-0.1504	-0.0776	2.4473	0.0000	-109.0088	7.0801	-0.4010	18.1549	-152.8802	43.9900	-153	-228	97	100768	0.46 
224.990	0.6807	-0.0698	0.4180	-8.9722	-95.4590	16.9678	-1.1591	6.1139	-151.6278	43.9600	-185	-218	109	100768	0.46 
225.041	0.1982	-0.0459	0.7661	-4.0894	-95.4590	12.0239	-1.3458	-0.5988	-149.3591	43.9700	-213	-214	120	100769	0.46 
225.052	0.0977	-0.0361	1.0796	-12.2070	-79.6509	12.2681	-2.2687	-8.2178	-147.1399	43.9500	-231	-210	138	100769	0.46 
225.251	0.3779	-0.0708	0.8540	11.5356	-6.0425	-8.7891	-3.1860	-13.8867	-145.7556	43.9500	-249	-204	154	100769	0.46 
225.397	0.0483	-0.0171	1.0400	11.9019	-16.8457	3.7231	-1.6425	-13.3264	-145.7007	43.9500	-249	-209	157	100769	0.46 
225.450	0.3325	-0.0225	0.9365	4.0283	2.0752	-1.4648	-0.6647	-14.7107	-144.2780	43.9400	-248	-212	162	100770	0.46 
225.461	0.2080	-0.0181	0.9727	2.9297	-1.3428	-3.4180	-0.1868	-14.1724	-143.5693	43.9300	-248	-210	166	100770	0.46 
225.684	0.2578	0.0073	0.9697	0.6104	0.2441	-4.2114	0.0494	-14.4635	-142.9596	43.9300	-246	-211	168	100770	0.46 
225.829	0.2305	0.0186	0.9810	-1.9531	-3.0518	-0.6714	0.0055	-14.4415	-142.2400	43.9300	-244	-215	169	100771	0.46 
225.883	0.2329	-0.0015	0.9780	-1.4648	-0.5493	0.4883	-0.1923	-14.6228	-141.3776	43.9300	-247	-215	167	100771	0.46 
225.896	0.2607	-0.0117	0.9731	0.1221	-0.7324	0.0000	-0.3076	-14.7052	-140.6799	43.9300	-246	-215	169	100771	0.46 
226.043	0.2339	-0.0059	0.9756	-0.3052	2.3193	-1.0986	-0.4999	-14.7107	-139.8779	43.9100	-245	-211	167	100771	0.46 
226.115	0.2578	0.0000	0.9683	1.2817	-0.4883	-0.3052	-0.4340	-14.6448	-139.1309	43.9100	-248	-208	169	100771	0.46 
226.216	0.2544	-0.0103	0.9707	0.2441	-0.7935	0.6714	-0.3900	-14.6338	-138.4442	43.9100	-245	-214	167	100771	0.46 
226.290	0.2461	-0.0054	0.9712	0.1221	-0.4883	0.1831	-0.4065	-14.6722	-137.7411	43.9100	-246	-212	168	100771	0.46 
226.460	0.2529	-0.0103	0.9683	0.0000	-1.0986	-0.4883	-0.4065	-14.7052	-137.1313	43.9100	-245	-212	164	100771	0.46 
226.624	0.2515	-0.0005	0.9702	-0.1221	-0.7324	-0.0610	-0.3955	-14.7327	-136.5875	43.8900	-245	-213	165	100771	0.46 
226.627	0.2515	-0.0068	0.9663	-0.3662	-0.1831	0.1831	-0.4175	-14.7656	-136.0382	43.8700	-247	-216	167	100771	0.46 
226.703	0.2285	-0.0103	0.9795	-0.6104	-2.5024	-0.7935	-0.4559	-14.7876	-135.5164	43.8800	-247	-213	166	100771	0.46 
226.899	0.2515	-0.0112	0.9756	-0.1221	3.4180	0.4883	-0.5328	-14.8096	-134.9011	43.9000	-245	-216	166	100771	0.46 
227.050	0.2407	-0.0127	0.9727	0.6104	-0.7935	0.3052	-0.5219	-14.6997	-134.4617	43.8900	-246	-211	170	100771	0.46 
227.100	0.2651	-0.0117	0.9756	0.7935	0.4883	0.4272	-0.4669	-14.7052	-133.9838	43.8800	-243	-211	169	100771	0.46 
227.122	0.2417	-0.0020	0.9775	0.4272	-1.9531	0.1831	-0.3790	-14.7327	-133.5828	43.9100	-243	-214	168	100771	0.46 
227.295	0.2354	-0.0024	0.9775	0.3662	-2.3804	0.7935	-0.3790	-14.9084	-133.1213	43.9000	-245	-214	167	100770	0.46 
227.443	0.2559	-0.0054	0.9707	0.1831	-1.3428	0.9766	-0.3516	-15.1007	-132.7313	43.9100	-247	-215	167	100770	0.46 
227.500	0.2666	-0.0005	0.9790	0.2441	-5.3711	1.6479	-0.3296	-15.3589	-132.3193	43.9200	-247	-213	169	100770	0.46 
227.535	0.2607	0.0049	0.9580	0.3052	-4.0283	0.1221	-0.3351	-15.8807	-131.8579	43.9000	-247	-214	169	100771	0.46 
227.704	0.2671	-0.0059	0.9688	-0.3662	-0.9766	0.1831	-0.3406	-16.0400	-131.5668	43.9200	-246	-214	170	100770	0.46 
227.845	0.2715	-0.0054	0.9580	0.1221	-2.2583	0.4272	-0.3516	-16.1938	-131.2537	43.9200	-249	-214	172	100770	0.46 
227.904	0.2700	-0.0005	0.9819	0.0610	-2.3193	2.1362	-0.3351	-16.3422	-130.8527	43.9300	-248	-211	168	100770	0.46 
228.047	0.2783	-0.0049	0.9556	-0.3662	-2.1362	0.1831	-0.3571	-16.7432	-130.5560	43.9500	-251	-212	173	100770	0.46 
228.131	0.2871	-0.0054	0.9541	-0.7935	-0.9766	0.0000	-0.4120	-16.9080	-130.2539	43.9400	-252	-212	174	100770	0.46 
228.241	0.2861	-0.0068	0.9590	-0.4883	-1.2817	-0.2441	-0.4504	-16.9519	-130.0122	43.9400	-251	-213	176	100770	0.46 
228.310	0.2798	-0.0039	0.9663	-0.3662	-1.5259	-0.3662	-0.4889	-16.9849	-129.7925	43.9500	-248	-219	172	100770	0.46 
228.493	0.2920	-0.0098	0.9634	-1.0376	-0.6104	-0.7935	-0.5383	-17.0892	-129.6497	43.9700	-251	-213	172	100770	0.46 
228.640	0.2920	-0.0073	0.9600	-0.9766	-0.7324	0.0000	-0.6317	-17.1167	-129.4574	43.9700	-248	-212	173	100770	0.46 
228.693	0.3032	0.0000	0.9565	-1.4038	0.6714	0.6104	-0.7086	-17.1936	-129.2322	43.9700	-247	-213	175	100770	0.46 
228.704	0.2881	-0.0137	0.9595	-0.6714	-1.0986	0.0000	-0.8240	-17.2430	-129.0399	43.9800	-249	-213	173	100770	0.46 
228.869	0.2866	-0.0112	0.9658	-0.0610	0.4883	0.0000	-0.8514	-17.2430	-128.9081	43.9700	-250	-212	173	100770	0.46 
228.941	0.2705	-0.0166	0.9644	0.3052	1.9531	-0.1221	-0.8130	-17.1112	-128.7433	43.9800	-249	-212	174	100770	0.46 
229.075	0.2607	-0.0098	0.9990	1.2817	4.8828	2.6245	-0.7361	-16.7871	-128.6060	43.9800	-248	-210	171	100770	0.46 
229.156	0.3345	0.0220	0.9116	3.1738	3.1738	4.6387	-0.7800	-17.0618	-127.6172	44.0000	-251	-211	173	100770	0.46 
229.284	0.2339	0.0093	0.9297	3.7231	7.7515	3.0518	-0.6592	-16.3367	-127.1722	43.9900	-250	-208	171	100770	0.46 
229.362	0.3647	0.0142	0.9927	4.5166	43.2739	-0.8545	-0.2142	-14.0680	-126.7712	44.0000	-245	-209	171	100770	0.46 
229.453	0.2803	-0.0083	0.9282	3.7231	71.0449	-5.5542	0.2856	-8.7067	-126.9250	44.0100	-240	-211	160	100770	0.46 
229.522	0.1387	0.0161	0.9146	2.6855	91.6138	-10.2539	0.5493	-1.1151	-127.7600	44.0100	-225	-214	139	100770	0.46 
229.731	-0.2041	0.0479	0.9077	4.0283	127.5024	-13.3667	0.9503	9.4647	-129.3036	44.0100	-202	-220	119	100770	0.46 
229.880	-0.5786	-0.1260	1.4028	0.4272	110.2295	-11.1694	0.7965	23.3734	-130.5835	44.0200	-161	-226	103	100770	0.46 
229.933	-0.8657	-0.0034	1.3843	10.5591	4.2725	-0.3662	1.6205	29.8059	-132.8137	44.0000	-127	-232	91	100770	0.46 
229.944	-0.8120	0.0942	1.2119	20.0806	-34.0576	-14.5874	2.4554	28.6029	-136.3184	43.9900	-114	-237	94	100770	0.46 
230.140	-0.3149	-0.0581	0.7134	5.0659	-46.8750	-14.4653	2.8125	24.4116	-139.8999	43.9700	-114	-245	99	100771	0.46 
230.211	-0.0322	0.0996	0.2568	-0.4883	-56.1523	-13.1226	2.4335	18.0615	-143.3386	43.9500	-124	-249	104	100770	0.46 
230.305	-0.2695	-0.1279	0.3696	5.1270	-3.4790	-15.1367	2.0435	15.7159	-146.3763	43.9400	-133	-252	105	100770	0.46 
230.351	-0.7109	0.0581	1.4580	6.9580	-16.4185	-18.7988	2.7795	18.0615	-148.6066	43.9300	-129	-250	110	100769	0.46 
230.538	-0.2739	0.0342	0.8887	-3.1738	10.8032	-5.0659	2.3511	16.1444	-151.4630	43.9200	-129	-257	112	100769	0.46 
230.696	-0.3657	-0.0151	0.8989	-2.0752	12.8784	-3.5400	2.0270	16.4960	-151.8970	43.9400	-130	-254	108	100769	0.46 
230.746	-0.2690	-0.0166	0.8887	-0.3662	5.9204	-18.4937	1.4282	17.4738	-153.6053	43.9400	-125	-255	113	100768	0.46 
230.768	-0.3896	0.0293	1.0815	2.1362	6.1646	-11.7188	1.2579	18.1604	-155.4785	43.9400	-119	-259	114	100768	0.46 
230.959	-0.2988	0.0415	0.9243	0.9155	3.9673	-8.6670	1.0217	18.2758	-157.1704	43.9400	-114	-259	112	100768	0.46 
231.127	-0.2920	-0.0127	0.9087	-0.4883	3.0518	-6.5918	1.0876	18.3527	-157.8076	43.9600	-115	-262	113	100767	0.47 
231.174	-0.3018	0.0342	0.9307	1.5869	-3.9063	-3.2349	0.8405	18.3307	-158.9612	43.9800	-112	-264	114	100767	0.47 
231.195	-0.3140	0.0308	0.9404	0.5493	-2.1973	0.4272	0.9723	18.1934	-159.4336	43.9600	-110	-263	112	100767	0.47 
231.340	-0.3452	-0.0127	0.9849	-1.7700	-0.3662	3.9673	0.8020	18.1604	-159.6533	43.9700	-112	-261	115	100766	0.47 
231.395	-0.3057	-0.0010	0.9541	0.1831	-2.2583	1.9531	0.9064	17.9462	-159.5380	43.9800	-111	-265	114	100766	0.47 
231.533	-0.2852	0.0098	0.9219	0.0000	-2.3804	-1.6479	0.8954	17.6880	-159.8676	43.9700	-108	-262	119	100766	0.47 
231.686	-0.3076	0.0137	0.9585	0.7935	-3.5400	-3.1128	0.7196	17.4573	-160.4883	43.9700	-112	-261	114	100765	0.47 
231.748	-0.2739	0.0122	0.9253	0.8545	-6.3477	-8.4839	0.6317	16.8695	-161.1804	43.9800	-114	-262	108	100765	0.47 
231.890	-0.3091	0.0435	0.9600	2.4414	-1.4038	5.4932	0.8075	16.7487	-161.6254	44.0000	-115	-264	114	100765	0.47 
231.958	-0.2832	0.0044	0.9600	-1.7090	-0.5493	11.6577	1.1536	16.6443	-160.6696	44.0100	-118	-264	114	100765	0.47 
232.000	-0.2856	0.0005	0.9541	-1.0376	-0.3052	7.2021	1.1920	16.6608	-159.9060	44.0000	-116	-262	112	100766	0.47 
232.203	-0.2783	0.0098	0.9536	-0.0610	-0.7935	4.2725	1.2634	16.6553	-159.5544	44.0100	-117	-263	114	100765	0.47 
232.349	-0.2832	0.0225	0.9570	-0.4272	0.0610	2.7466	1.3403	16.6388	-159.4116	44.0300	-117	-262	115	100765	0.47 
232.352	-0.2837	0.0005	0.9600	-0.1831	-1.8311	0.6714	1.3403	16.6333	-159.3567	44.0200	-117	-261	114	100766	0.47 
232.409	-0.2896	0.0356	0.9644	0.8545	0.1831	-1.4038	1.3458	16.5070	-159.7192	44.0200	-122	-260	116	100765	0.47 
232.545	-0.2778	0.0176	0.9521	-0.5493	-0.3052	-0.4272	1.3403	16.5015	-159.9280	44.0400	-119	-259	115	100765	0.47 
232.613	-0.2935	0.0186	0.9556	-0.5493	-1.5869	-0.1221	1.2909	16.4465	-160.0543	44.0300	-123	-262	115	100766	0.47 
232.757	-0.2769	0.0288	0.9556	0.3662	1.3428	-1.2207	1.2744	16.3312	-160.2576	44.0200	-123	-262	113	100766	0.47 
232.951	-0.2808	0.0234	0.9531	-0.6714	-1.2817	2.4414	1.3293	16.3806	-160.2850	44.0500	-121	-260	114	100765	0.47 
233.005	-0.2798	0.0171	0.9614	-0.3662	-1.0376	0.7324	1.2799	16.3092	-160.2411	44.0500	-121	-261	112	100766	0.47 
233.128	-0.2852	0.0273	0.9561	-0.4272	-0.7324	0.9766	1.2744	16.2762	-160.3180	44.0600	-122	-262	114	100766	0.47 
233.188	-0.2876	0.0146	0.9609	-0.2441	-1.3428	-2.1362	1.2634	16.1719	-160.3619	44.0500	-122	-261	115	100766	0.47 
233.344	-0.2769	0.0269	0.9541	2.3193	-1.1597	-0.6714	1.3568	16.0565	-160.6201	44.0600	-120	-260	112	100766	0.47 
233.402	-0.2778	0.0127	0.9561	0.8545	-0.0610	-2.1362	1.4722	16.0291	-160.7684	44.0700	-121	-262	112	100765	0.47 
233.534	-0.2471	0.0195	0.9487	1.7700	2.6855	-2.0752	1.5601	16.1060	-161.0431	44.0700	-120	-265	118	100766	0.47 
233.597	-0.2866	0.0527	0.9834	-0.5493	-2.7466	-1.1597	1.6479	16.3751	-161.2244	44.0800	-120	-261	114	100766	0.47 
233.772	-0.2661	0.0298	0.9478	1.5869	-4.6997	5.4321	1.8073	15.8258	-161.0431	44.0800	-118	-261	115	100766	0.47 
233.829	-0.2627	0.0225	0.9463	2.0752	-1.4038	3.7231	2.0764	15.5841	-160.6531	44.0900	-121	-260	115	100766	0.47 
233.922	-0.2876	0.0361	0.9619	-0.1221	0.3052	4.5776	2.2961	15.6226	-160.2795	44.0900	-123	-262	118	100766	0.47 
233.992	-0.2734	0.0391	0.9565	-0.3052	-0.6104	4.8218	2.3895	15.5951	-159.8401	44.0900	-126	-261	114	100766	0.47 
234.163	-0.2773	0.0415	0.9565	0.1221	-2.1973	3.6621	2.4884	15.5017	-159.4501	44.0800	-127	-263	114	100766	0.47 
234.226	-0.2837	0.0356	0.9644	0.0000	-2.4414	3.0518	2.5763	15.3314	-159.1699	44.0900	-127	-260	114	100766	0.47 
234.373	-0.3130	0.0425	0.9644	0.3662	-3.0518	4.5166	2.6587	15.2051	-158.9667	44.1100	-131	-258	117	100766	0.47 
234.431	-0.3647	0.0161	0.9575	-2.1973	-11.5356	21.8506	3.0487	14.7656	-157.6208	44.1100	-133	-261	112	100766	0.47 
234.537	-0.3779	-0.0151	0.9155	-9.1553	2.0752	7.0190	2.7191	14.4360	-156.3574	44.1000	-138	-258	115	100766	0.47 
234.609	-0.4121	0.0293	0.8057	-10.4370	25.5127	2.7466	1.9940	16.1664	-156.0223	44.1200	-139	-254	110	100766	0.47 
234.791	-0.2051	0.0928	0.4966	-6.4087	68.6646	5.0049	1.1316	21.7804	-156.3245	44.1100	-137	-249	108	100766	0.47 
234.851	-0.3735	-0.2188	0.6699	4.4556	9.3384	25.0854	2.9388	28.0096	-153.1494	44.1200	-124	-251	102	100766	0.47 
234.954	-0.4097	-0.2275	0.7783	10.3149	-6.3477	33.9355	4.0649	28.8062	-151.2323	44.1100	-118	-243	99	100766	0.47 
235.029	-0.8872	0.2510	1.2319	-5.4321	-59.5703	-9.7656	5.4877	27.7515	-150.7599	44.1100	-126	-242	97	100767	0.47 
235.174	-0.4917	0.1445	2.0195	-7.9956	-86.4258	10.3149	4.3781	20.7257	-151.0455	44.1100	-149	-237	105	100768	0.46 
235.250	0.6372	0.1655	0.4912	6.0425	-120.9106	-18.0054	4.1638	6.2347	-152.7814	44.1000	-185	-230	116	100768	0.46 
235.356	0.2783	0.1069	0.8804	-14.8926	-83.4351	-4.3945	3.7683	-1.0931	-153.0780	44.1100	-207	-231	131	100769	0.46 
235.417	0.1494	0.0635	0.8389	-8.9111	-74.2798	18.0664	3.0872	-8.8275	-151.9849	44.1100	-222	-227	147	100769	0.46 
235.557	0.9204	0.0771	0.7144	-12.3901	-53.1616	18.4326	2.4170	-15.2435	-149.6173	44.1100	-239	-220	164	100769	0.46 
235.624	0.0112	-0.0532	0.9790	-2.3804	-4.6997	0.1831	1.1591	-16.1774	-147.4640	44.1100	-246	-217	168	100770	0.46 
235.831	0.3110	-0.0688	0.9380	-0.6104	-13.9771	3.6621	0.7745	-17.0288	-146.4587	44.0900	-249	-214	170	100770	0.46 
235.965	0.2915	0.0000	0.9561	3.6621	5.0049	5.0659	0.7635	-17.6385	-144.7174	44.0800	-254	-212	173	100770	0.46 
236.062	0.2852	0.0493	0.9648	2.9907	-7.6294	1.0376	0.9888	-17.6660	-143.5309	44.0900	-249	-216	176	100770	0.46 
236.064	0.3135	0.0356	0.9453	0.1221	2.2583	-1.5259	1.2415	-18.0670	-142.6080	44.1000	-249	-213	176	100770	0.46 
236.163	0.2993	0.0166	0.9629	-0.9766	-3.4790	0.1221	1.2250	-17.9407	-141.8500	44.0900	-250	-215	176	100770	0.46 
236.222	0.2964	0.0059	0.9644	-0.6714	-1.5259	1.4648	1.0492	-18.2483	-140.8557	44.1000	-249	-212	178	100770	0.46 
236.400	0.2549	0.0122	0.9595	-1.5869	15.3198	-8.5449	1.0492	-17.7594	-140.1251	44.0800	-253	-214	174	100770	0.46 
236.468	0.2813	0.0161	0.9912	-0.7324	3.3569	-1.0376	1.0876	-16.9299	-139.7516	44.1000	-248	-215	172	100771	0.46 
236.562	0.2754	0.0132	0.9604	-0.4272	-1.1597	1.0986	1.0052	-17.0123	-138.9221	44.1100	-249	-213	172	100771	0.46 
236.638	0.2979	0.0190	0.9512	-0.7935	-1.3428	1.1597	0.9229	-17.1332	-138.1421	44.1200	-252	-212	173	100771	0.46 
236.852	0.2861	-0.0020	0.9624	-0.3662	-2.1973	1.0376	0.8240	-17.2211	-137.4115	44.1100	-249	-214	174	100771	0.46 
236.858	0.2827	0.0127	0.9702	0.2441	-1.1597	0.6104	0.7526	-17.3199	-136.7249	44.1200	-248	-215	175	100771	0.46 
237.000	0.2847	0.0171	0.9561	-0.1221	0.0610	-0.3662	0.7581	-17.4023	-136.1481	44.1100	-250	-216	174	100771	0.46 
237.068	0.3145	0.0112	0.9580	-0.8545	2.5024	-2.4414	0.7745	-17.2430	-135.9448	44.1100	-252	-216	175	100771	0.46 
237.187	0.2939	0.0034	0.9644	-0.1831	-1.2207	0.4272	0.7471	-17.0673	-135.5109	44.1100	-251	-218	176	100771	0.46 
237.264	0.2935	0.0122	0.9517	0.0000	-2.5024	0.4883	0.6921	-17.2266	-134.8956	44.1000	-251	-214	176	100771	0.46 
237.438	0.2891	0.0112	0.9634	-0.1831	-1.4038	-0.1221	0.7031	-17.3199	-134.4342	44.1300	-250	-215	175	100771	0.46 
237.573	0.2891	0.0107	0.9629	0.0000	-0.2441	0.2441	0.6866	-17.3859	-134.0057	44.1100	-248	-216	175	100771	0.46 
237.622	0.2954	0.0122	0.9590	-0.8545	1.0376	0.0000	0.6482	-17.3749	-133.5938	44.1400	-252	-217	177	100771	0.46 
237.680	0.2925	0.0034	0.9590	-0.1831	-0.1221	-0.0610	0.6042	-17.3364	-133.2367	44.1300	-252	-212	177	100771	0.46 
237.912	0.2905	0.0117	0.9629	0.4883	-0.8545	0.3662	0.6097	-17.3749	-132.8357	44.1300	-249	-212	178	100771	0.46 
238.054	0.2861	0.0151	0.9639	0.1831	-2.1362	0.5493	0.6427	-17.4463	-132.4841	44.1400	-251	-216	177	100771	0.46 
238.107	0.2915	0.0122	0.9619	0.0000	-0.7324	0.0610	0.6537	-17.5397	-132.1490	44.1400	-251	-212	177	100771	0.46 
238.201	0.2993	0.0146	0.9570	0.0000	0.0610	0.2441	0.6537	-17.6056	-131.8140	44.1400	-255	-213	172	100771	0.46 
238.261	0.3013	0.0132	0.9570	-0.1221	-0.3662	0.0000	0.6427	-17.6166	-131.4954	44.1400	-250	-216	175	100771	0.46 
238.303	0.2983	0.0112	0.9600	-0.1831	-0.4272	-0.0610	0.6317	-17.6276	-131.2262	44.1400	-249	-217	177	100771	0.46 
238.513	0.2993	0.0122	0.9565	-0.1221	-0.6104	0.0610	0.6317	-17.6605	-130.9680	44.1700	-251	-214	177	100771	0.46 
238.653	0.2974	0.0117	0.9658	0.1221	-1.0986	0.3662	0.6262	-17.7429	-130.6989	44.1400	-254	-214	175	100770	0.46 
238.706	0.2935	0.0088	0.9644	0.1221	-2.6245	1.0986	0.6207	-17.9297	-130.3857	44.1800	-253	-215	175	100771	0.46 
238.806	0.3008	0.0142	0.9585	0.0610	-0.1221	0.0000	0.6262	-18.0450	-130.1715	44.1600	-249	-215	176	100771	0.46 
238.877	0.3159	0.0122	0.9546	-0.0610	0.1221	0.6714	0.6207	-18.1329	-129.9518	44.1600	-251	-216	177	100771	0.46 
239.043	0.2759	0.0117	0.9683	-0.1221	-0.1221	1.2817	0.5219	-18.0011	-129.4299	44.1700	-253	-215	173	100771	0.46 
239.102	0.3042	0.0063	0.9639	0.1831	-0.8545	-0.1831	0.4889	-18.0835	-129.1937	44.1800	-254	-215	180	100771	0.46 
239.248	0.3145	0.0122	0.9536	0.1831	-0.9155	-0.2441	0.5164	-18.2043	-129.0454	44.1700	-255	-215	179	100771	0.46 
239.318	0.3042	0.0093	0.9487	0.1831	-1.8311	1.5869	0.5164	-18.3582	-128.8477	44.1700	-253	-214	177	100771	0.46 
239.419	0.3066	0.0156	0.9292	0.0000	3.3569	3.9063	0.4559	-18.3801	-128.4521	44.1800	-250	-214	176	100771	0.46 
239.482	0.2461	0.0669	0.9912	5.5542	14.0381	-2.3193	0.8844	-17.0123	-128.4851	44.1900	-250	-214	174	100771	0.46 
239.624	0.3311	0.0117	0.9478	2.5024	30.3345	-0.3052	1.3898	-15.0403	-128.3643	44.2000	-250	-214	170	100771	0.46 
239.687	0.3013	0.0396	0.9224	5.4321	48.6450	6.5308	1.7578	-11.5247	-127.8973	44.1900	-244	-217	164	100771	0.46 
239.856	0.1987	0.0308	0.8809	3.2349	89.3555	-16.9067	2.0874	-5.2295	-127.9028	44.2000	-236	-217	148	100771	0.46 
239.922	0.0239	-0.0308	0.9370	15.9912	103.9429	-8.7891	3.3069	5.1306	-128.1281	44.2000	-214	-225	130	100772	0.46 
240.083	-0.3950	0.1792	1.0952	5.4932	146.4233	-20.6299	4.1418	16.6772	-129.9078	44.2000	-182	-231	115	100772	0.46 
240.225	-1.0283	0.0674	1.5469	1.8311	21.3623	12.9395	5.2734	30.5804	-131.2427	44.2000	-133	-239	105	100772	0.46 
240.282	-0.8335	0.0903	1.1641	-7.9346	2.2583	-10.3149	5.1196	30.8826	-134.1650	44.1800	-115	-243	101	100772	0.46 
240.295	-0.3633	0.0811	0.6855	-4.4556	-66.5894	-9.4604	4.4055	27.9602	-137.1368	44.1400	-111	-250	100	100771	0.46 
240.427	-0.2490	0.0176	0.4194	-1.7700	-83.8623	-55.4199	1.8896	21.5717	-142.6575	44.1500	-118	-250	100	100771	0.46 
240.502	-0.0796	-0.1621	0.0742	14.9536	-34.0576	-35.9497	1.5820	15.3149	-148.6340	44.1400	-128	-256	109	100771	0.46 
240.696	-0.6572	0.3481	1.0342	5.3101	-23.9258	-10.2539	2.7795	16.6003	-152.0013	44.1400	-124	-258	112	100770	0.46 
240.778	-0.2158	-0.0332	0.8457	-6.2256	4.0283	8.5449	1.7303	15.5237	-152.7264	44.1100	-125	-262	115	100770	0.46 
240.886	-0.2549	-0.0688	0.8979	-1.5869	1.6479	-0.3662	1.7194	15.5402	-151.8915	44.1200	-127	-263	112	100769	0.46 
241.032	-0.3579	0.0317	0.9658	1.0376	3.5400	-3.9063	1.5875	16.6278	-153.1274	44.1100	-124	-259	112	100769	0.46 
241.096	-0.3032	0.0552	0.9292	-8.3008	13.5498	-4.0894	1.3513	16.9519	-153.8745	44.1300	-126	-259	113	100768	0.46 
241.119	-0.3384	0.0630	0.9165	1.7700	6.4697	6.5308	1.4941	17.6935	-153.5449	44.1200	-124	-259	112	100768	0.46 
241.294	-0.2935	0.0313	0.9443	-1.1597	-1.6479	7.3242	1.6150	17.8748	-153.4076	44.1300	-125	-260	107	100768	0.46 
241.348	-0.3179	0.0142	0.9741	-0.4272	-0.9155	1.9531	1.6589	17.8748	-153.2922	44.1300	-126	-258	113	100767	0.46 
241.452	-0.3008	0.0342	0.9517	0.5493	-1.7090	0.0000	1.6974	17.7319	-153.6932	44.1300	-125	-257	112	100767	0.46 
241.533	-0.3188	0.0229	0.9619	-0.6104	1.3428	-1.5869	1.6534	17.6331	-154.1821	44.1300	-125	-256	110	100767	0.47 
241.690	-0.2974	0.0283	0.9404	0.1221	0.1221	0.1831	1.6589	17.6331	-154.6216	44.1200	-127	-257	112	100767	0.47 
241.764	-0.3086	0.0396	0.9526	0.0000	2.0752	-0.7324	1.6864	17.6660	-155.0281	44.1200	-126	-255	111	100767	0.47 
241.871	-0.3042	0.0425	0.9541	-1.1597	0.0000	4.4556	1.7633	17.7319	-155.2423	44.1400	-125	-257	114	100767	0.47 
241.949	-0.3101	0.0054	0.9551	-1.3428	-0.3662	-0.1221	1.6644	17.6660	-155.3247	44.1400	-127	-256	111	100767	0.47 
242.116	-0.2891	0.0200	0.9399	1.7700	0.7324	-8.6060	1.5161	17.6001	-156.1102	44.1400	-128	-257	111	100767	0.47 
242.274	-0.3115	0.0322	0.9497	2.8687	0.7324	-13.0005	1.3953	17.7319	-157.5604	44.1300	-124	-259	111	100766	0.47 
242.328	-0.3218	0.0186	0.9648	2.9907	0.4272	-11.2305	1.3348	17.7484	-159.0436	44.1400	-121	-259	117	100766	0.47 
242.365	-0.3008	0.0259	0.9429	2.6245	-0.4272	-8.3618	1.3184	17.6715	-160.3345	44.1500	-115	-261	114	100767	0.47 
242.511	-0.3003	0.0293	0.9521	1.0376	-0.0610	-7.1411	1.2469	17.6166	-161.3507	44.1500	-117	-263	112	100767	0.47 
242.557	-0.3193	0.0220	0.9556	0.9155	1.3428	-5.3711	1.1151	17.7319	-162.2076	44.1500	-111	-263	116	100767	0.47 
242.704	-0.3203	0.0273	0.9517	0.6714	0.9155	-2.8687	1.0876	17.8418	-162.7789	44.1600	-110	-264	118	100767	0.47 
242.767	-0.3213	0.0308	0.9556	-0.1831	1.4038	-2.1973	1.0602	17.8912	-163.1470	44.1600	-112	-264	116	100767	0.47 
242.883	-0.3301	0.0352	0.9629	-0.3052	-0.3052	0.8545	1.0657	17.9352	-163.2843	44.1700	-114	-263	113	100766	0.47 
242.972	-0.2915	0.0508	0.9692	-0.8545	2.8687	8.9722	1.1700	18.2043	-162.9932	44.1600	-108	-263	116	100767	0.47 
243.124	-0.3135	-0.0142	0.9683	-0.8545	0.5493	3.1738	1.2579	18.3032	-162.5427	44.1600	-112	-265	115	100766	0.47 
243.261	-0.3262	0.0283	0.9590	0.9766	-3.2349	-0.9155	1.2250	18.1219	-162.7020	44.1700	-113	-265	111	100767	0.47 
243.335	-0.3066	0.0332	0.9463	-0.4883	-1.5259	1.6479	1.2854	17.9022	-162.8174	44.1700	-114	-263	117	100767	0.47 
243.505	-0.3140	0.0151	0.9482	-0.3662	-2.4414	2.5024	1.3129	17.7484	-162.6526	44.1700	-116	-265	120	100767	0.47 
243.563	-0.3110	0.0190	0.9404	-0.2441	0.1831	0.7935	1.3403	17.5726	-162.5812	44.1800	-113	-262	117	100767	0.47 
243.737	-0.3120	0.0269	0.9453	-0.1831	-0.9155	0.0610	1.3403	17.6001	-162.6416	44.1600	-115	-263	115	100766	0.47 
243.790	-0.2998	0.0308	0.9546	0.1221	-1.0376	0.2441	1.3403	17.5177	-162.7020	44.1800	-115	-265	115	100766	0.47 
243.878	-0.3120	0.0391	0.9541	-0.0610	-1.5869	1.8311	1.3953	17.4023	-162.6910	44.1700	-115	-259	117	100766	0.47 
243.950	-0.2964	0.0303	0.9521	-0.9155	-1.5869	3.7231	1.4722	17.1936	-162.4603	44.2000	-116	-262	117	100766	0.47 
244.110	-0.3091	0.0293	0.9556	-1.0986	-1.5259	4.6997	1.5106	17.0782	-162.1033	44.2000	-117	-259	115	100766	0.47 
244.172	-0.2827	0.0190	0.9482	-0.7324	-0.4883	3.7842	1.5381	16.9464	-161.7188	44.2000	-119	-261	115	100766	0.47 
244.300	-0.2915	0.0269	0.9512	-0.2441	-0.3662	0.9766	1.5656	16.9189	-161.5649	44.2000	-119	-264	114	100766	0.47 
244.375	-0.2939	0.0283	0.9517	-0.0610	-0.7324	0.3662	1.5656	16.8750	-161.5540	44.2100	-120	-261	113	100767	0.47 
244.551	-0.2842	0.0254	0.9468	-0.0610	0.0000	-0.0610	1.5601	16.8365	-161.5924	44.2100	-122	-258	113	100767	0.47 
244.699	-0.2886	0.0298	0.9473	0.0000	-0.3662	-0.5493	1.5436	16.8750	-161.6913	44.2100	-124	-261	113	100767	0.47 
244.760	-0.2915	0.0288	0.9541	-0.1221	0.3662	-0.9155	1.5326	16.9080	-161.7847	44.2200	-122	-262	114	100767	0.47 
244.778	-0.3052	0.0264	0.9575	-0.0610	-0.4883	-0.8545	1.5161	16.9354	-161.9110	44.2000	-120	-263	113	100767	0.47 
244.922	-0.2964	0.0264	0.9512	0.0000	-0.6104	0.1831	1.5271	16.9080	-161.9440	44.2200	-121	-260	112	100767	0.47 
244.987	-0.2876	0.0313	0.9473	0.0000	-0.5493	0.3662	1.5436	16.8750	-161.9385	44.2200	-120	-261	109	100767	0.47 
245.144	-0.2939	0.0283	0.9502	-0.1831	-1.0376	0.7324	1.5546	16.8146	-161.8781	44.2300	-120	-261	112	100767	0.47 
245.198	-0.2979	0.0327	0.9580	0.0000	0.1221	0.4883	1.5820	16.7761	-161.8616	44.2300	-119	-261	114	100767	0.46 
245.320	-0.2910	0.0273	0.9463	-0.1831	0.0000	1.2207	1.6150	16.7542	-161.7737	44.2300	-120	-260	115	100767	0.46 
245.392	-0.2939	0.0313	0.9512	0.1831	-0.8545	1.5259	1.6699	16.7487	-161.6803	44.2400	-121	-260	113	100767	0.46 
245.568	-0.2891	0.0342	0.9502	-0.4272	0.3052	1.3428	1.7303	16.6882	-161.5704	44.2400	-125	-262	113	100767	0.46 
245.722	-0.3345	0.0239	0.9585	-0.5493	0.7324	2.8076	1.7578	16.8091	-161.3892	44.2300	-123	-259	115	100767	0.46 
245.777	-0.2832	0.0288	0.9238	0.3052	0.6714	4.5776	1.9061	16.9244	-161.0815	44.2400	-123	-261	115	100768	0.46 
245.791	-0.3066	0.0303	0.9619	-1.8921	1.5869	3.7231	1.9061	17.1277	-160.8398	44.2500	-124	-260	117	100767	0.46 
245.917	-0.2573	0.0415	0.9570	0.2441	-4.0894	2.9907	1.9226	16.7706	-160.5157	44.2400	-124	-260	110	100768	0.46 
245.989	-0.2729	0.0410	0.9482	1.3428	-5.4321	2.0142	2.0929	16.2927	-160.2740	44.2500	-125	-255	112	100767	0.46 
246.109	-0.2749	0.0591	0.9482	0.9766	-3.3569	-0.1221	2.3016	15.9631	-160.2466	44.2800	-126	-261	111	100767	0.46 
246.184	-0.2769	0.0454	0.9644	0.2441	-1.0986	3.0518	2.4774	15.7709	-159.9719	44.2700	-130	-259	113	100768	0.46 
246.330	-0.2671	0.0498	0.9619	0.4883	-2.1973	-0.9766	2.5708	15.6226	-159.8456	44.2600	-130	-260	112	100768	0.46 
246.395	-0.2871	0.0601	0.9678	-0.5493	-1.1597	-1.8921	2.5818	15.4688	-160.0433	44.2700	-129	-264	114	100767	0.46 
246.518	-0.2769	0.0469	0.9565	-2.3193	-1.9531	-1.0376	2.4829	15.3369	-160.1587	44.2800	-128	-260	117	100768	0.46 
246.589	-0.2744	0.0684	0.9443	-3.6011	0.7324	2.3193	2.2467	15.2216	-160.1642	44.2700	-129	-258	115	100767	0.46 
246.745	-0.3208	0.0181	0.9761	-6.9580	1.1597	6.2866	1.8292	15.4468	-159.7028	44.2900	-128	-257	114	100768	0.46 
246.819	-0.2915	-0.0571	0.9502	-9.8267	0.3662	-8.5449	0.6592	15.6226	-159.8236	44.2900	-128	-258	113	100767	0.46 
246.947	-0.2603	0.0078	0.9897	-3.1738	5.6763	-23.6206	-0.7745	15.6995	-161.8561	44.2800	-130	-259	109	100767	0.46 
247.027	-0.1768	0.0029	0.9692	-8.9111	-5.9204	-6.5918	-1.5546	15.4468	-163.1250	44.2800	-124	-259	107	100767	0.46 
247.148	-0.2100	-0.0957	0.9497	-4.2725	-0.0610	-0.3662	-2.4500	14.9579	-163.0591	44.2800	-126	-252	104	100767	0.46 
247.222	-0.2744	-0.1260	0.9971	11.3525	13.1226	-9.7046	-2.4445	15.2490	-163.3612	44.2900	-123	-253	105	100768	0.46 
247.403	-0.2471	-0.0693	0.9946	13.1226	-0.3662	-22.7051	-1.7084	15.7324	-164.8059	44.2900	-116	-255	111	100767	0.47 
247.546	-0.2192	0.0469	1.0034	12.8784	-3.1738	-17.3340	-1.0382	15.4797	-166.9208	44.3100	-111	-261	114	100768	0.46 
247.607	-0.2227	-0.0962	1.0410	12.1460	-10.1318	-18.4937	-0.3955	14.3646	-168.3490	44.2900	-107	-266	118	100767	0.46 
247.622	-0.2451	-0.0313	0.9487	6.4697	-16.8457	-37.6587	-0.5548	13.0627	-171.4032	44.3000	-99	-272	120	100768	0.46 
247.769	-0.2441	-0.1426	0.9155	21.6675	-19.3481	-35.3394	-0.4010	11.2170	-174.6332	44.3000	-96	-273	123	100767	0.46 
247.827	-0.3091	0.1714	0.9521	19.7144	-10.7422	-40.2832	0.9393	10.5908	-179.0387	44.2900	-87	-279	131	100767	0.46 
247.956	-0.2705	0.0498	1.0518	10.7422	8.6060	-60.7300	1.4557	10.5798	176.9623	44.2900	-76	-287	135	100767	0.46 
248.038	-0.1846	0.0186	0.9453	15.7471	-2.7466	-65.4297	2.0709	11.0028	171.8811	44.2900	-55	-286	142	100767	0.46 
248.169	-0.1831	0.1260	0.9399	9.3994	3.0518	-64.2700	2.2797	11.3873	165.7617	44.2900	-36	-290	147	100767	0.46 
248.240	-0.3374	0.0522	1.0747	8.1177	3.7842	-58.7769	1.7798	12.8320	160.6201	44.2900	-11	-291	152	100767	0.46 
248.413	-0.3115	0.2021	0.8545	7.6294	8.6670	-53.6499	1.5930	13.6890	154.6820	44.3100	10	-285	156	100768	0.46 
248.483