StartTime: 2017-07-14 14:15:41.614
Time(s)	ax(g)	ay(g)	az(g)	wx(deg/s)	wy(deg/s)	wz(deg/s)	AngleX(deg)	AngleY(deg)	AngleZ(deg)	T(°)	hx	hy	hz	Pressure(Pa)	Altitude(m) 
217.907	-0.1396	-0.1226	0.5869	7.9956	75.3174	-20.6909	0.3735	21.5991	84.1772	44.2400	212	15	-48	100562	0.64 
218.032	-0.3120	-0.0479	0.5864	8.1177	72.0215	-17.6392	0.8734	29.1797	83.2599	44.2500	222	21	-26	100562	0.64 
218.125	-0.3174	-0.0625	0.7212	11.9019	51.5137	14.8926	2.0709	34.1235	82.1338	44.2400	226	20	-6	100563	0.64 
218.235	-0.7944	0.2349	1.0122	5.1880	51.8799	-4.0894	2.4445	37.7216	81.1890	44.2500	229	20	6	100563	0.64 
218.329	-0.8154	0.1606	1.0181	2.4414	10.3149	13.4888	3.3289	37.0789	82.4139	44.2300	233	23	11	100564	0.64 
218.438	-0.7207	0.4063	1.5317	17.7612	-75.6836	17.7612	5.1910	30.7617	84.1113	44.2300	231	18	2	100564	0.63 
218.548	-0.8818	0.3105	1.6968	7.5684	-79.7729	-9.5215	6.8665	22.3517	85.2484	44.2200	223	15	-17	100565	0.63 
218.641	0.0190	0.0068	0.9946	6.0425	-32.7148	-16.3574	6.5863	17.5891	83.7708	44.2300	212	12	-43	100566	0.63 
218.735	-0.0376	0.0752	0.6387	-8.6670	-37.7197	-4.6387	5.7953	13.1891	82.7271	44.2100	209	19	-59	100566	0.63 
218.860	-0.1470	0.1084	0.9189	-10.9253	-20.7520	20.8130	5.0537	10.0470	83.4247	44.1900	204	19	-68	100567	0.63 
219.000	-0.2632	0.0942	1.1704	-0.7935	14.5874	5.6152	4.6088	9.5526	84.3201	44.1900	202	15	-69	100567	0.63 
219.032	-0.1909	0.0562	1.0791	0.0000	21.1182	5.4321	4.7241	11.7004	85.1660	44.1900	203	12	-66	100567	0.63 
219.157	-0.1699	0.0879	0.8843	0.7324	25.6958	-1.0376	4.8450	13.5571	85.3912	44.1800	204	13	-64	100567	0.63 
219.313	-0.3877	0.0859	0.8921	4.4556	41.0767	-2.0142	5.1416	16.9189	85.1990	44.1900	211	15	-49	100567	0.63 
219.344	-0.3750	0.0708	1.0493	-5.1880	75.6836	-5.9204	5.1746	22.8241	85.1276	44.2000	218	12	-33	100567	0.63 
219.454	-0.4814	-0.1646	1.0859	-1.5259	111.2671	-36.8652	4.3011	31.1847	84.2981	44.2000	229	18	-11	100567	0.63 
219.564	-1.2827	0.1953	1.1821	-14.8315	53.7109	25.3906	0.3131	40.2264	77.9755	44.2000	228	32	19	100567	0.63 
219.657	-1.0229	-0.0317	1.0103	0.6104	10.5591	11.7798	0.4889	42.7753	80.1343	44.2000	230	33	35	100567	0.63 
219.751	-0.8657	0.1353	0.8359	-15.1367	-43.8843	19.6533	2.4609	40.7318	82.9578	44.1800	235	30	36	100567	0.63 
219.876	-0.4175	0.0493	0.7124	2.3804	-51.3306	11.4746	1.9006	34.3542	84.6002	44.1700	236	18	19	100566	0.63 
219.954	-0.2183	-0.0776	0.3604	-3.3569	-65.5518	-16.1743	1.3348	27.8174	84.6112	44.1600	232	18	-4	100565	0.63 
220.079	-0.4238	0.0732	0.5488	14.4653	-59.8755	3.5400	1.2689	21.9946	83.3368	44.1600	223	21	-26	100565	0.63 
220.173	-0.4976	0.1060	0.8403	-3.2349	-12.1460	1.4038	2.6697	18.8470	83.6938	44.1400	216	22	-45	100564	0.64 
220.297	-0.3379	0.0073	0.9683	-6.1035	-16.9678	42.2974	2.5928	17.1936	84.9298	44.1700	214	22	-53	100563	0.64 
220.391	-0.2881	0.0337	0.9492	-4.5776	-4.8828	9.4604	2.6807	15.8368	86.9293	44.1500	211	14	-58	100562	0.64 
220.470	-0.2705	0.0562	0.9731	-6.3477	-4.0894	11.1084	2.3126	15.3149	87.7972	44.1400	213	15	-61	100561	0.64 
220.594	-0.3306	0.0732	1.0293	0.9766	0.6104	3.8452	2.1368	15.2820	88.4949	44.1600	209	12	-60	100561	0.64 
220.688	-0.3354	0.0562	0.9795	-5.4321	3.5400	8.7280	2.4664	15.2710	89.0112	44.1800	209	6	-61	100561	0.64 
220.782	-0.2563	0.0391	0.9775	0.6714	0.4883	-0.4883	2.2742	15.2271	89.4562	44.1800	208	6	-61	100560	0.64 
220.892	-0.3179	0.0649	0.9800	2.8076	6.0425	-7.5684	2.4005	15.5457	88.9508	44.1800	213	9	-61	100560	0.64 
220.986	-0.3208	0.0933	0.9854	1.7090	3.1738	-7.2632	2.4115	16.3422	87.9730	44.1800	211	11	-60	100560	0.64 
221.110	-0.3501	0.0806	1.0161	-3.5400	4.6997	-2.8076	2.3181	16.7267	87.3633	44.1900	211	14	-61	100560	0.64 
221.204	-0.3813	0.0015	0.9229	-0.0610	12.2681	6.8359	2.4005	17.2815	88.3136	44.2100	212	8	-58	100560	0.64 
221.298	-0.3496	0.0122	0.6753	2.1362	33.2031	6.7749	2.5653	19.3524	88.9893	44.2200	214	8	-52	100560	0.64 
221.407	-0.4907	0.1353	0.7842	5.1270	55.4810	12.2070	3.5596	24.3018	90.2856	44.2000	221	4	-38	100560	0.64 
221.501	-0.3237	0.0630	0.6753	5.3101	57.8003	11.4746	4.9109	29.0039	90.8185	44.2100	228	2	-25	100560	0.64 
221.611	-0.8677	0.0142	1.0342	3.4180	70.8008	-11.6577	4.4550	34.8267	90.5658	44.2000	233	3	-9	100560	0.64 
221.735	-0.9395	-0.1152	1.1509	8.9111	25.6958	-19.7144	4.5703	38.9026	88.3795	44.2300	236	5	10	100560	0.64 
221.860	-0.7593	0.0762	1.0054	21.6064	-26.1230	-15.9912	3.4113	39.2322	84.0839	44.2100	231	13	21	100561	0.64 
221.923	-0.8052	0.2070	1.5654	11.1084	-68.7256	-2.0752	3.7463	33.7610	82.1008	44.1900	232	20	10	100562	0.64 
222.063	-0.8770	0.0679	1.5469	4.0283	-38.5132	12.4512	5.4987	27.3175	83.8092	44.2000	229	22	-8	100563	0.64 
222.126	-0.3120	-0.1177	0.8159	-14.0991	-36.7432	18.6768	5.7404	22.3132	85.8746	44.2000	223	16	-29	100564	0.64 
222.236	-0.2451	0.0142	0.5205	-8.6060	-24.5361	4.3335	4.4824	18.6108	86.2427	44.1700	216	14	-37	100564	0.63 
222.376	-0.2637	0.0356	0.9141	-7.9956	-13.1226	2.9907	3.8892	17.0398	86.4185	44.1600	216	13	-44	100565	0.63 
222.423	-0.3379	0.0093	1.2935	-6.6528	-6.5308	16.9067	3.0707	16.5839	86.4954	44.1500	215	16	-50	100565	0.63 
222.548	-0.2637	0.1221	1.0527	-1.0986	-15.0146	-11.9019	2.7411	15.2490	85.9845	44.1800	213	16	-57	100566	0.63 
222.626	-0.2104	0.0532	0.8716	-1.7090	-1.9531	-7.9346	2.2467	14.7437	85.0562	44.1900	211	17	-56	100566	0.63 
222.751	-0.2666	0.0264	0.9751	-3.9673	1.1597	-4.2725	1.6370	14.8920	84.6936	44.1700	210	18	-57	100566	0.63 
222.845	-0.2798	0.0220	1.0552	1.1597	3.2959	-1.6479	1.4996	15.2655	84.6277	44.1800	210	20	-55	100566	0.63 
222.954	-0.2524	0.0454	1.0532	-10.9253	6.0425	4.2114	1.2140	15.7269	84.6771	44.2000	209	24	-53	100566	0.63 
223.095	-0.3022	-0.0039	0.9297	-5.1270	1.3428	0.9155	0.5164	15.7928	84.8639	44.1700	211	19	-52	100566	0.63 
223.157	-0.3018	0.0098	0.8892	-5.4932	11.7188	0.4883	-0.0659	16.3696	84.7485	44.1700	210	23	-52	100566	0.63 
223.236	-0.3677	-0.0640	0.9351	-8.7891	20.7520	-2.0142	-1.0931	18.4735	84.7046	44.1700	212	20	-47	100566	0.63 
223.360	-0.4399	0.0239	0.9536	1.8311	38.5742	-9.3384	-1.4777	22.0605	83.4851	44.1800	220	24	-35	100566	0.63 
223.454	-0.1377	0.0342	1.0674	-7.3853	75.1953	10.3760	-1.4667	26.8890	83.3917	44.1700	224	25	-23	100567	0.63 
223.564	-1.3716	-0.3086	1.6689	-15.9912	110.2295	-27.1606	-2.7960	36.6998	83.8422	44.2000	229	23	5	100567	0.63 
223.673	-1.0093	-0.0483	1.1313	-7.2632	13.8550	4.2114	-4.3726	41.4240	81.7163	44.1900	237	25	35	100566	0.63 
223.798	-0.8237	-0.0166	0.9282	-2.6245	-41.6260	7.0801	-4.2188	40.6769	82.2382	44.1600	235	26	41	100566	0.63 
223.907	-0.4512	-0.0415	0.7422	21.9727	-66.1011	19.7754	-1.2360	35.5243	84.7321	44.1400	235	20	24	100566	0.63 
224.001	-0.3052	-0.0005	0.2900	8.1787	-95.8252	11.7188	0.4285	28.3777	85.1660	44.1000	228	20	0	100565	0.63 
224.064	-0.0835	-0.1260	0.0439	7.9956	-78.7964	11.0474	-1.0162	19.8029	87.6709	44.0900	218	19	-34	100565	0.63 
224.189	-0.5981	0.0269	1.3057	-8.3618	64.2090	0.4272	0.6976	19.8029	87.7203	44.0800	218	17	-53	100563	0.64 
224.283	0.3242	0.1758	0.5156	1.3428	-6.2866	-12.0850	0.2802	18.2977	86.9568	44.0800	216	14	-52	100563	0.64 
224.407	-0.1260	0.0381	0.8789	5.0659	-34.0576	3.4790	0.1373	18.6877	87.0996	44.0700	214	19	-50	100562	0.64 
224.532	-0.4561	-0.0283	1.0596	0.8545	1.8921	13.9771	0.6152	19.0778	87.6929	44.0600	217	18	-46	100562	0.64 
224.626	-0.2021	0.0557	0.9341	3.2349	-6.1646	-0.3662	0.8844	17.7264	87.8192	44.0700	214	15	-53	100561	0.64 
224.751	-0.3857	0.0396	0.9971	0.3052	1.0986	0.9766	1.1096	18.1384	87.4731	44.0600	218	16	-52	100561	0.64 
224.798	-0.3262	0.0327	0.9751	-0.0610	0.7935	-6.2256	1.1700	17.9626	87.1436	44.0800	212	15	-50	100561	0.64 
224.908	-0.3271	0.0420	0.9878	1.0986	1.0986	-5.1270	1.0657	18.0450	86.2811	44.0800	214	15	-52	100560	0.64 
225.017	-0.2891	0.0171	0.9429	0.3662	9.6436	-0.0610	1.1646	18.2318	85.9076	44.0900	212	20	-49	100560	0.64 
225.095	-0.3340	0.0420	0.9761	1.2817	8.3008	-3.9673	1.3293	19.3195	85.5011	44.0800	214	19	-50	100560	0.64 
225.204	-0.3579	0.0063	0.9541	-1.1597	5.1880	5.2490	1.4941	19.6875	85.7263	44.1000	215	18	-47	100560	0.64 
225.314	-0.3647	0.0527	0.9692	-2.0142	-2.0142	6.9580	1.6040	19.8743	86.0229	44.0800	216	18	-49	100560	0.64 
225.407	-0.3335	0.0400	0.9727	-3.6011	-4.5776	8.1177	1.5985	19.5996	86.7096	44.1000	215	15	-47	100560	0.64 
225.517	-0.3472	0.0088	0.9668	-2.0752	-1.0376	4.2725	1.4832	19.3524	87.2754	44.0800	215	11	-45	100561	0.64 
225.626	-0.3521	0.0083	0.9175	-0.2441	3.3569	-3.7842	1.3678	19.3195	87.1875	44.0700	215	13	-47	100561	0.64 
225.705	-0.4546	0.0142	0.8394	-2.8076	21.1792	-1.7700	1.0382	20.9125	86.5448	44.0700	216	15	-44	100561	0.64 
225.829	-0.5161	-0.0288	0.6768	-7.2632	37.2925	-0.6104	0.4999	24.4116	86.5723	44.0800	222	14	-39	100561	0.64 
225.907	-0.4858	0.0854	0.5928	9.7656	97.2900	7.6294	0.4449	32.0911	86.1108	44.0900	228	17	-21	100561	0.64 
226.032	-0.5366	-0.0571	0.7847	6.8970	61.8286	32.8979	5.7843	39.6497	91.9830	44.0900	234	5	2	100560	0.64 
226.142	-0.4985	0.0371	0.6060	-8.8501	-1.7700	-11.3525	5.8887	41.1108	92.0544	44.0900	236	-1	22	100560	0.64 
226.236	-0.1816	-0.0923	0.3931	10.3149	-18.3716	-15.5029	5.0812	40.7153	91.2305	44.0900	239	0	29	100561	0.64 
226.346	-0.3169	0.2139	0.7959	20.0195	-69.0308	-9.2773	5.1361	36.3483	88.9948	44.0800	237	6	20	100561	0.64 
226.439	-1.1191	0.5181	1.9507	8.2397	-65.0024	26.1230	7.4103	30.1355	89.3188	44.0800	235	4	1	100562	0.64 
226.564	-0.3311	0.2822	1.1963	5.4321	-45.8374	3.3569	8.6957	24.8236	89.6649	44.0800	226	2	-13	100563	0.64 
226.658	-0.6743	0.0313	0.3877	-7.3242	-41.5039	52.9785	8.3771	16.4960	90.1813	44.0600	218	1	-38	100564	0.63 
226.798	-0.0854	0.0737	0.6440	-15.9302	-26.4282	1.5869	7.1411	11.3489	90.7526	44.0600	213	0	-57	100564	0.63 
226.861	-0.2373	0.1211	1.1816	-4.7607	-4.7607	2.6855	6.1578	9.8602	90.7910	44.0500	203	0	-67	100565	0.63 
226.970	-0.2441	0.0605	1.1494	-1.8311	8.3618	-3.9063	5.9326	11.0522	90.6262	44.0300	204	0	-67	100565	0.63 
227.095	-0.1914	0.0991	0.9121	-3.4180	6.2256	-1.5869	5.4822	12.1564	89.9615	44.0400	206	3	-61	100566	0.63 
227.158	-0.1934	0.0757	0.8862	-5.6152	-3.8452	-2.6245	4.9438	12.0959	89.5770	44.0200	209	3	-64	100566	0.63 
227.268	-0.2661	0.0776	1.0298	-4.1504	-2.9297	-4.0894	4.3231	11.5741	89.0826	44.0300	205	5	-62	100566	0.63 
227.408	-0.2207	0.0859	1.0659	-2.0142	10.1318	-1.6479	4.0979	12.6563	88.8849	44.0500	206	5	-63	100565	0.63 
227.455	-0.2153	0.0283	0.9561	-1.9531	12.3291	-3.1128	3.9331	13.5956	88.7970	44.0500	208	4	-58	100565	0.63 
227.611	-0.2676	0.0728	0.9526	4.5166	45.2271	-27.1606	3.5101	15.9192	87.5555	44.0400	210	6	-55	100565	0.63 
227.673	-0.2227	-0.0103	0.9937	-0.9766	40.2222	-2.0752	4.0265	20.1160	86.8799	44.0400	215	9	-41	100565	0.63 
227.783	-0.3936	0.0747	0.9517	-3.6011	62.9883	-9.2773	3.5541	24.9335	86.7865	44.0500	220	11	-26	100565	0.63 
227.892	-0.7119	0.0776	1.1177	-9.2773	122.3755	-18.7378	2.6862	33.2227	85.9570	44.0500	232	15	-1	100565	0.63 
228.033	-1.1426	0.0557	1.3159	1.9531	39.7339	-13.9771	0.9229	43.7091	84.1937	44.0500	234	19	37	100565	0.63 
228.095	-1.0381	-0.0181	0.9868	7.7515	-52.4292	4.0283	1.4612	43.7970	84.1113	44.0400	234	22	49	100565	0.63 
228.205	-0.5903	-0.0811	0.9131	-11.3525	-74.6460	4.3945	1.0547	37.0184	84.1113	44.0400	234	23	30	100565	0.63 
228.314	-0.1826	0.0454	0.3599	-2.8687	-92.4683	16.1133	1.2579	27.9382	84.7375	44.0200	228	20	2	100565	0.63 
228.393	-0.2036	0.0024	0.2427	3.6011	-84.5947	13.1226	1.5161	19.3304	85.7263	44.0100	220	22	-29	100564	0.64 
228.517	-0.3555	0.0093	0.4526	-6.4087	31.6772	3.9063	2.0050	15.8752	86.7480	44.0100	215	17	-52	100563	0.64 
228.658	0.0347	-0.0142	0.5591	2.1362	-27.1606	28.0762	2.3016	17.7209	89.6210	43.9900	218	14	-48	100562	0.64 
228.720	-0.3018	0.0513	1.0259	0.4883	-11.4136	12.9395	2.9059	18.0890	90.7910	44.0000	215	4	-50	100561	0.64 
228.814	-0.3853	0.0313	0.9819	2.1973	7.3853	-1.5259	3.1366	17.7979	91.1096	44.0200	216	2	-51	100561	0.64 
228.923	-0.2847	0.0356	0.9668	4.6997	4.3335	-7.9956	3.4332	18.2648	90.4944	44.0100	215	5	-51	100560	0.64 
229.018	-0.3511	0.0898	0.9595	-0.8545	5.3101	0.4883	3.6090	18.9899	89.5880	44.0100	221	7	-50	100560	0.64 
229.127	-0.3267	0.0210	0.9585	0.3662	0.0000	1.1597	3.5376	19.5667	89.6704	44.0200	216	5	-47	100560	0.64 
229.267	-0.3765	0.0576	0.9805	-0.9766	2.6855	-4.0894	3.5101	20.1324	89.1431	44.0200	217	3	-49	100559	0.64 
229.330	-0.3140	0.0742	0.9351	-0.6104	2.1973	-6.9580	3.2245	20.1434	88.3960	44.0100	218	6	-46	100558	0.64 
229.408	-0.3389	0.0366	0.9844	-1.1597	-1.1597	-6.2256	2.8949	20.2423	87.7643	44.0400	219	11	-49	100558	0.64 
229.533	-0.3682	0.0469	0.9800	-1.4038	0.3662	-1.0376	2.6587	20.0775	87.1271	44.0200	216	10	-45	100558	0.64 
229.627	-0.3511	0.0391	0.9697	-1.7090	-3.2349	-1.7700	2.4664	19.8798	86.8799	44.0200	219	12	-44	100559	0.64 
229.736	-0.3340	0.0508	0.9551	-1.1597	0.0000	-1.7700	2.3181	19.6490	86.6052	44.0100	213	12	-46	100559	0.64 
229.877	-0.3564	0.0103	0.9902	-0.0610	-2.2583	-2.5024	2.1478	19.5007	86.3745	44.0100	215	13	-47	100560	0.64 
229.924	-0.3262	0.0220	0.9805	-1.4648	-5.7983	-6.0425	1.8842	19.0613	85.6934	44.0100	217	17	-50	100560	0.64 
230.127	-0.3042	0.0547	0.9810	2.6245	-11.5967	-8.3008	1.6644	18.2593	84.7595	43.9900	213	17	-48	100560	0.64 
230.142	-0.2710	0.0166	0.9917	2.3193	-10.8643	-11.0474	1.5326	17.1387	83.7708	43.9900	212	20	-54	100560	0.64 
230.236	-0.2861	0.0146	1.0044	3.1128	-11.4746	-9.7656	1.4886	16.2378	82.7216	43.9900	211	22	-60	100560	0.64 
230.346	-0.2568	0.0112	1.0039	2.0752	-15.9302	-6.4087	1.4722	14.8975	81.7273	43.9800	205	28	-61	100560	0.64 
230.439	-0.2456	0.0063	0.9902	1.5259	-11.1694	-7.2021	1.3788	13.7878	80.9363	43.9800	204	32	-63	100560	0.64 
230.549	-0.2275	-0.0093	0.9980	1.6479	-6.7749	-13.3057	1.1755	12.8265	79.8047	43.9900	203	35	-69	100561	0.64 
230.689	-0.2280	-0.0166	1.0259	3.6621	-4.5166	-13.5498	1.0602	12.2443	78.3490	43.9900	195	36	-69	100561	0.64 
230.752	-0.2446	0.0117	0.9917	10.5591	-3.2349	-22.0947	1.3403	11.9861	76.4813	43.9700	192	41	-72	100561	0.64 
230.830	-0.2568	0.0098	1.0527	12.4512	-8.3618	-22.0947	1.9446	11.6071	74.4543	43.9700	189	47	-78	100560	0.64 
230.955	-0.1934	0.1406	0.9810	7.3242	-3.6621	-25.8789	2.6422	11.3434	71.7188	43.9700	187	49	-80	100560	0.64 
231.049	-0.1396	0.1470	1.0205	-0.3052	5.4932	-24.8413	2.7740	11.1237	69.1205	43.9800	183	57	-83	100560	0.64 
231.177	-0.1982	0.0996	0.9907	-1.0376	8.6670	-11.2915	2.6367	11.8103	67.1429	43.9700	178	62	-83	100560	0.64 
231.300	-0.2427	0.0063	1.0317	2.4414	9.7656	-22.3389	2.3895	12.6727	65.5829	43.9900	179	64	-79	100560	0.64 
231.354	-0.3174	0.1929	0.9668	3.2959	7.9956	-8.8501	2.6917	13.6725	63.4955	43.9800	174	72	-78	100560	0.64