10 times
StartTime: 2017-07-06 15:39:56.080
Time(s)	ax(g)	ay(g)	az(g)	wx(deg/s)	wy(deg/s)	wz(deg/s)	AngleX(deg)	AngleY(deg)	AngleZ(deg)	T(°)	hx	hy	hz 
24.025	-0.7593	-0.0347	0.6006	-2.9907	-57.6782	-16.5405	2.3291	51.2952	-138.3453	42.0000	-46	-139	46 
24.230	-0.7886	0.0649	0.6387	1.3428	-34.1187	21.3013	2.6202	46.9885	-140.5042	42.0000	-63	-136	41 
24.262	-0.7349	0.1230	0.5161	9.5825	-21.9727	18.3105	4.6967	44.0112	-140.1361	42.0100	-82	-138	41 
24.262	-0.5835	-0.0649	0.8062	-8.4839	-14.4653	22.4609	7.9541	42.8027	-137.3236	42.0200	-88	-137	38 
24.378	-0.5396	0.2466	0.8091	17.3950	-38.8794	-19.1650	5.9271	38.9960	-141.2787	42.0200	-99	-137	40 
24.409	-0.6284	0.0752	0.8301	7.6294	-6.1646	-6.4087	6.8335	37.7051	-143.2452	42.0300	-110	-144	38 
24.610	-0.5547	0.0728	0.7593	12.6953	-10.1929	-21.5454	6.6028	36.7493	-145.7391	42.0200	-112	-145	40 
24.679	-0.5894	0.0776	0.8994	4.3335	-28.2593	-9.0332	6.0974	35.1563	-148.2605	42.0200	-119	-153	41 
24.778	-0.5752	0.0435	0.7979	1.7090	-23.1934	-19.0430	4.5758	32.5415	-150.7599	42.0300	-129	-152	43 
24.832	-0.5181	0.0518	0.8726	-4.2725	-30.7617	-7.6294	3.8727	30.0366	-152.0013	42.0300	-138	-156	50 
24.879	-0.4434	0.0811	0.7808	-7.8125	-16.3574	3.9673	3.3014	27.3560	-151.8805	42.0500	-151	-160	49 
25.048	-0.5142	-0.0479	0.9341	-8.1787	-7.1411	10.3149	2.6917	26.5869	-150.5182	42.0400	-156	-156	48 
25.129	-0.4751	0.0645	0.8770	-13.0615	-21.1792	33.5083	2.4060	25.2631	-148.4308	42.0400	-158	-152	50 
25.248	-0.4888	-0.0352	0.9556	-21.3013	16.9067	57.9834	2.7850	24.0820	-142.7454	42.0500	-163	-142	50 
25.311	-0.3643	-0.0630	0.8125	-24.4751	-5.1270	57.9834	2.6422	24.1589	-136.3678	42.0500	-161	-127	51 
25.459	-0.4722	-0.0571	0.8506	-10.1929	-1.6479	62.2559	3.1366	24.2743	-129.6497	42.0500	-159	-112	57 
25.537	-0.4888	0.1606	0.8784	-1.8921	19.3481	38.9404	4.7736	25.2136	-124.5245	42.0700	-152	-102	53 
25.662	-0.3682	-0.1694	0.9038	2.3804	14.4043	12.0850	6.4600	27.1472	-120.3223	42.0600	-139	-92	53 
25.709	-0.3809	0.1162	1.0054	7.0190	0.4883	-22.8271	6.5479	27.0319	-122.1625	42.0700	-131	-93	57 
25.849	-0.4600	0.0010	0.6606	21.7285	28.5034	-78.1250	4.8779	28.3337	-128.3807	42.0700	-134	-100	49 
25.896	-0.3306	0.0894	0.3022	36.0107	25.8179	-84.2896	3.1750	32.4316	-138.4937	42.0800	-135	-118	48 
26.021	-0.2139	0.4121	-0.2183	9.1553	81.1768	-11.9629	7.6849	38.3533	-144.3658	42.0900	-125	-134	45 
26.068	-0.2778	-0.2334	0.7212	5.6763	-42.1753	-10.4370	9.5581	43.1433	-141.4819	42.0800	-99	-139	42 
26.287	-0.7524	0.1577	0.7305	3.6621	81.6650	22.6440	8.1244	44.3903	-143.6023	42.0600	-95	-143	40 
26.287	-0.9497	0.2490	1.2578	15.4419	15.8081	1.2207	10.4535	47.9279	-141.8390	42.0500	-82	-142	42 
26.474	-2.3643	0.3687	1.5449	27.0386	24.1699	-8.2397	12.4969	51.7621	-143.1299	42.0500	-66	-145	46 
26.646	-1.1426	0.1504	1.4985	15.5640	-44.3115	-23.5596	13.8867	53.2123	-145.5908	42.0400	-54	-153	45 
26.709	-0.4565	0.1387	0.7578	-13.2446	-31.9824	12.7563	8.0255	45.0000	-154.9127	42.0200	-74	-157	44 
26.896	-1.2646	0.0449	1.3921	-11.3525	-49.2554	33.8135	8.6188	42.3083	-152.8363	41.9800	-88	-156	39 
27.006	0.1333	-0.1753	0.1387	-11.5356	-50.2319	-6.4697	8.3496	34.5575	-151.2543	41.9300	-115	-149	40 
27.006	-0.0498	0.0771	-0.9175	-19.2261	-102.0508	29.7241	9.2725	27.2900	-151.5344	41.8800	-151	-153	45 
27.068	-0.1460	-0.0142	0.2661	-14.0991	-33.8135	10.3149	8.8989	29.3445	-148.8922	41.8700	-160	-147	51 
27.375	-0.1270	0.0737	-0.2642	-12.5122	-2.1362	-16.9067	6.1194	24.8676	-150.7214	41.8400	-169	-141	54 
27.390	-0.8154	-0.2764	-0.3618	-12.0239	105.4688	-18.9209	8.8550	33.5742	-150.2490	41.8500	-160	-136	52 
27.453	-0.8179	0.2109	1.8735	7.9346	51.5747	24.2920	9.2834	49.6307	-149.4086	41.8300	-115	-131	45 
27.531	-0.6646	-0.2412	0.2656	-4.8828	106.0791	49.4995	11.2830	49.2078	-145.2557	41.8400	-94	-131	45 
27.578	-0.6748	0.0571	1.3345	-5.4321	25.3906	-1.6479	18.7921	58.2111	-137.3236	41.8300	-54	-135	50 
27.687	-2.7261	0.4814	1.3804	19.1650	12.7563	7.1411	22.1210	62.0508	-136.2854	41.8300	-36	-133	51 
27.687	-1.3589	0.1514	1.3872	12.2070	-67.9321	-31.2500	20.6873	60.0842	-141.8665	41.7900	-29	-138	48 
27.843	-0.6045	-0.0957	0.9438	19.6533	-101.6235	-11.2915	11.7554	50.4712	-155.7367	41.7800	-55	-145	44 
27.937	-0.9004	0.3091	1.0762	18.1274	-6.7749	-23.9868	9.5746	43.9673	-161.3782	41.7500	-88	-154	41 
28.031	-0.1719	-0.0591	0.3589	18.9819	-72.0825	17.2119	9.4263	39.8090	-161.7517	41.7000	-106	-157	38 
28.109	0.0732	-0.1279	-1.0981	18.9819	-72.0825	17.2119	9.4263	39.8090	-161.7517	41.6600	-144	-160	45 
28.265	-0.2358	0.0103	0.6216	-0.7324	-2.6245	-26.3062	11.6016	35.5298	-162.8558	41.6500	-160	-165	51 
28.328	0.0503	0.0400	-0.2837	6.7139	-4.0283	-21.4233	13.1946	35.6232	-163.4381	41.6400	-164	-166	51 
28.453	-0.2441	0.1719	-0.3525	1.0376	50.2930	2.0752	16.3806	42.0282	-163.4711	41.6300	-161	-174	52 
28.500	-1.3164	-0.3721	1.3560	-6.1646	212.6465	-29.7852	20.5005	55.9534	-158.1812	41.6300	-137	-171	50 
28.703	0.5908	-0.2466	0.3989	-13.3057	-64.5142	17.7002	19.0997	55.4095	-158.0438	41.6100	-100	-167	43 
28.750	-1.5000	0.2827	1.8413	-8.9722	37.8418	-3.4790	24.3567	60.4413	-150.1117	41.6000	-88	-166	41 
28.859	-2.8169	0.2222	2.0078	29.8462	22.8882	-7.6904	23.2416	60.7434	-151.0840	41.5900	-77	-164	44 
28.906	-1.5229	0.1064	1.6978	27.0996	0.7935	-5.0049	25.1642	62.8473	-152.1167	41.5900	-64	-170	50 
29.093	-0.4150	0.1011	0.7358	10.3149	-29.7241	-21.2402	19.0393	56.3434	-161.9550	41.5500	-73	-182	50 
29.109	-1.0049	0.1191	1.6377	-10.8032	-45.4712	51.2695	19.2316	52.9926	-160.8124	41.5100	-83	-182	46 
29.281	-0.5757	0.1733	0.1377	-45.5933	-41.9922	20.8130	17.4738	44.3518	-160.0928	41.4700	-111	-180	44 
29.353	0.1265	-0.3174	-0.7886	16.9678	-101.9287	-11.5356	15.7050	39.2871	-162.9822	41.4600	-144	-176	45 
29.525	-0.2363	0.2695	0.7417	-14.2212	37.7197	-41.7480	15.4852	43.3026	-164.0973	41.4200	-157	-174	50 
29.525	0.0859	-0.2544	-0.2573	10.1318	-14.1602	-7.3242	17.5891	42.9016	-163.1689	41.4200	-160	-171	53 
29.619	-0.2095	0.0356	-0.2671	-8.3008	21.3013	-24.7192	18.4241	48.4882	-165.6628	41.4300	-165	-176	52 
29.728	-1.0640	-0.1040	1.7251	5.5542	232.9102	-36.3159	20.5829	60.8203	-163.2568	41.4100	-146	-175	50 
29.806	0.1270	0.2373	0.4346	-4.7607	-41.9922	17.3950	25.6586	62.3254	-155.9564	41.4300	-110	-165	48 
29.915	-1.0132	0.2373	1.1714	8.5449	52.7344	33.9355	30.3497	63.0396	-148.9197	41.4000	-99	-168	43 
30.056	-1.2354	-0.0063	1.2720	3.1738	79.6509	27.7100	37.6996	63.4296	-138.3838	41.3900	-81	-164	43 
30.119	-2.2563	0.4688	1.4834	18.7378	-0.6714	9.5825	44.0991	64.9237	-133.1708	41.4000	-61	-166	45 
30.181	-1.1382	0.0791	1.2568	12.1460	-84.3506	-26.4893	40.4077	62.7759	-139.5538	41.3900	-60	-176	48 
30.431	-0.5264	0.0796	0.9150	-1.9531	-8.3618	-22.5830	27.0319	57.6617	-154.2590	41.3700	-83	-178	42 
30.494	-1.1914	0.1118	1.3403	-6.4697	-68.4204	17.3950	22.9889	55.0415	-157.9834	41.3500	-93	-180	41 
30.744	-0.4194	0.1528	0.5840	-1.5259	-55.6030	26.8555	20.2753	48.8232	-159.5215	41.3400	-118	-174	40 
30.744 
30.759	-0.1953	0.0459	-0.5278	-19.6533	85.0830	-15.7471	21.9617	39.2102	-156.5387	41.2800	-178	-169	57 
30.962	-0.0088	0.1089	-0.2285	-0.4272	-31.9824	-0.3052	22.0605	37.3480	-154.9677	41.2700	-182	-163	60 
30.962	-0.2275	-0.0723	-0.4888	-11.6577	54.4434	34.1797	27.9602	40.4681	-149.4745	41.2700	-184	-161	62 
31.025	-1.7705	-0.2065	3.0576	3.2959	272.2778	-51.8799	37.6007	55.2557	-136.9336	41.2500	-156	-150	49 
31.166	0.0176	-0.0684	0.4814	13.3667	16.6016	-22.9492	36.3263	56.0687	-137.0929	41.2500	-120	-147	41 
31.228	-0.7954	0.0630	1.0293	-13.1836	-19.5923	13.0615	36.7603	57.6727	-133.3630	41.2700	-107	-147	45 
31.478	-1.8516	-0.1279	1.8999	10.6201	16.7236	7.3853	36.2000	57.1069	-133.0170	41.2600	-98	-144	43 
31.556	-1.4692	0.2314	1.6626	8.1787	6.1035	-6.1035	36.5350	57.5519	-133.6926	41.2800	-91	-148	42 
31.650	-0.6470	-0.0068	0.8438	4.8218	-41.0156	1.2207	33.7500	55.8820	-136.7798	41.2500	-91	-148	47 
31.650	-0.6650	0.2725	1.2959	-6.3477	-9.3994	23.3765	33.0414	53.8824	-136.2140	41.2300	-92	-151	41 
31.697	-1.1592	0.2627	1.2070	-0.6104	-74.8901	39.5508	28.6414	48.4552	-139.3341	41.1800	-105	-143	43 
31.822	-0.0635	-0.0391	0.0654	7.2021	-67.6270	-26.8555	22.6208	42.5006	-144.6899	41.1400	-132	-142	42 
31.962	-0.1108	0.1147	-0.7554	-17.7002	-66.9556	15.7471	25.3949	37.9138	-146.2225	41.1200	-160	-147	49 
31.994	-0.1460	0.0229	0.3984	-5.7373	-5.6763	8.9722	24.3622	39.7156	-145.0854	41.1100	-173	-145	52 
32.394	0.0151	0.0181	-0.1484	-4.8218	-42.5415	4.9438	27.3450	37.1558	-143.1903	41.0900	-181	-141	55 
32.487	-0.5459	-0.0654	-0.4541	-13.5498	89.9658	1.4648	31.3824	39.8804	-141.0754	41.1000	-188	-139	59 
32.675	-0.8853	0.0596	1.4072	8.6060	4.7607	-14.6484	40.6989	54.7394	-127.5018	41.0900	-143	-131	48 
32.753	-0.5425	0.0405	1.0400	16.7236	5.3101	-7.2632	37.8314	55.1788	-129.8145	41.0800	-118	-131	45 
32.753	-1.4629	-0.2305	1.4043	-22.2778	108.3984	52.6123	40.3802	57.1454	-125.2936	41.0900	-105	-136	41 
32.753	-2.2134	0.0635	1.7222	22.7661	84.3506	10.7422	46.4172	59.3097	-119.1797	41.0800	-86	-133	42 
32.816	-1.2319	0.1289	1.3232	16.6626	41.6870	-27.8931	50.7349	64.4513	-116.3123	41.0700	-61	-140	45 
32.816	-0.5522	0.0610	0.7944	8.0566	-64.9414	-20.2026	36.7383	64.5612	-133.3850	41.0500	-54	-145	44 
33.003	-1.0410	0.1045	1.5947	12.6343	0.3052	-15.0757	30.0970	63.1219	-141.5643	41.0200	-62	-149	41 
33.003	-0.7754	-0.0571	0.3032	-3.2349	-143.5547	20.5078	24.1534	52.0862	-148.2495	40.9900	-92	-149	38 
33.269	-0.2065	-0.0977	-0.3022	1.2817	-94.5435	19.2261	23.5657	45.0494	-151.9904	40.9500	-129	-154	39 
33.394	0.0288	0.0439	-0.2197	-9.9487	39.3677	-23.1934	27.2186	44.3683	-151.3147	40.9600	-167	-155	49 
33.488	-0.0674	-0.0181	0.0112	2.0752	-23.1934	18.3716	27.7130	45.7581	-149.4965	40.9400	-165	-158	48 
33.659	-0.0356	-0.0918	-0.2930	-5.4932	-10.3760	-10.6812	33.5687	48.9935	-146.9806	40.9300	-165	-153	49 
33.738	-0.7607	0.2305	-0.1719	-4.0283	135.3760	-15.5029	38.8477	57.1948	-143.3551	40.9400	-160	-152	50 
33.909	-0.5303	0.3462	0.9395	17.3340	-113.4644	-2.4414	47.2852	63.4625	-132.4402	40.9300	-117	-150	46 
34.003	-1.5522	-0.0630	1.6499	4.5776	81.5430	35.8276	44.6594	61.2982	-133.6432	40.9200	-118	-157	46 
34.128	-2.0073	0.1694	1.9282	5.8594	64.3311	31.3721	43.8849	60.6830	-133.2257	40.9200	-112	-156	41 
34.128	-1.5371	0.2725	1.5215	7.4463	36.8652	17.0288	47.9279	62.3859	-127.9193	40.9100	-97	-153	40 
34.128	-0.7280	0.0488	1.0054	5.4932	-54.8706	-5.7983	44.3298	60.9906	-131.5448	40.8800	-89	-158	43 
34.206	-0.6631	0.1040	0.9575	-5.1270	-18.2495	8.1787	36.7053	57.1509	-139.0814	40.8900	-99	-156	39 
34.347	-0.8159	0.0132	0.9976	-0.9766	-70.0684	16.5405	33.1073	51.4435	-141.7950	40.8500	-112	-154	44 
34.456	-0.2148	0.0176	0.0459	-20.3857	-24.7192	-4.5166	30.9045	46.9006	-142.5696	40.8400	-135	-152	42 
34.534	-0.2148	0.0176	0.0459	-20.3857	-24.7192	-4.5166	31.2671	45.1923	-147.2662	40.8100	-157	-152	47 
34.675	-0.0864	0.0562	0.5088	-10.7422	-3.2959	3.1738	31.1957	48.0817	-144.3549	40.8000	-161	-146	47 
34.769	-0.3613	-0.1377	-0.4053	-15.8081	-5.0659	-5.8594	31.7725	46.3293	-143.4430	40.7700	-166	-143	53 
34.878	-1.5029	-0.0137	2.7871	-16.0522	61.7065	44.7998	46.4612	58.2935	-124.2169	40.7900	-134	-132	48 
34.956	-0.3911	-0.0942	0.9614	7.0801	111.0229	13.6719	47.6971	59.6667	-121.7395	40.7900	-108	-132	44 
35.050	-0.8193	-0.0059	1.0762	7.8125	64.3311	-5.0659	50.8942	63.7207	-118.5040	40.7800	-82	-134	42 
35.159	-0.6890	0.0415	0.7739	-15.5029	50.5981	-19.7144	47.2522	64.8962	-120.3497	40.7800	-65	-133	47 
35.159	-1.8462	-0.2749	1.5703	-10.6201	32.1045	-0.9766	47.7301	66.7804	-118.6798	40.7800	-56	-129	50 
35.206	-1.6958	0.0576	1.3335	3.1128	-50.5371	4.7607	41.5393	63.3032	-126.3263	40.7800	-54	-126	48 
35.387	-0.7622	-0.0762	0.9307	13.3057	-80.5054	18.9209	35.7770	57.5903	-133.9233	40.7500	-70	-129	44 
35.418	-0.9502	0.0767	1.4692	1.1597	-15.6860	-12.8784	31.3879	55.7996	-138.4332	40.7400	-86	-133	44 
35.496	-0.9199	-0.1240	0.6616	16.9067	-54.5654	29.0527	27.7295	49.5099	-143.2837	40.7100	-101	-130	41 
35.621	0.0869	0.0825	-0.0669	6.7139	-103.3325	4.5776	26.0815	43.9288	-146.2390	40.6600	-124	-141	40 
35.840 
36.043	-0.0894	0.1289	0.2437	-9.1553	-27.6489	30.7617	27.8174	38.5236	-147.5848	40.6300	-182	-142	61 
36.059	-0.1152	-0.0557	-0.3027	-16.2964	17.1509	-3.2959	32.0087	42.0831	-145.1678	40.6100	-179	-136	60 
36.231	-1.3613	0.0308	0.9058	-15.9302	306.2744	22.5220	41.1768	53.3221	-134.1376	40.6300	-161	-131	53 
36.309	0.0640	0.0806	0.3882	37.3535	-73.4253	-73.4253	44.7144	58.3594	-127.7325	40.6300	-104	-120	42 
36.309	-0.8027	0.1582	0.8535	-1.0986	34.1797	-15.8691	41.0120	58.6011	-131.3086	40.6100	-102	-127	43 
36.434	-0.6523	0.4351	0.8276	7.3242	-16.4185	-44.8608	34.7168	58.1726	-135.9833	40.6200	-95	-119	45 
36.512	-1.4326	-0.0903	1.6660	10.4370	-49.3164	1.7090	31.5912	57.5848	-137.2412	40.6300	-95	-117	48 
36.527	-1.5410	-0.0933	1.5171	6.7749	18.3105	8.9111	28.9819	55.3326	-139.8065	40.6200	-104	-115	51 
36.824	-0.7705	-0.0317	0.9619	21.8506	-28.3813	14.4043	29.2841	54.1351	-140.4492	40.6000	-104	-121	49 
36.824	-0.5122	0.1489	0.9268	-5.8594	29.6021	14.4653	29.3774	53.1519	-139.6527	40.5800	-105	-128	43 
36.887	-0.8906	0.0645	1.5405	3.6011	-9.3384	4.1504	27.8119	52.7234	-138.7463	40.5600	-95	-124	41 
37.231	-0.7324	0.0278	0.6055	16.1743	-69.2749	3.1738	24.8016	47.4774	-143.0585	40.5200	-107	-120	45 
37.231	-0.1694	0.0059	-0.2729	11.9629	-118.4692	-4.6387	26.2079	39.9463	-145.4480	40.4900	-134	-133	40 
37.231	0.2324	-0.0854	-0.6899	1.4038	-14.8315	23.6816	29.4763	34.2554	-147.8979	40.5000	-175	-138	54 
37.342	-0.1611	0.1538	-0.2339	-8.1177	-3.5400	27.0996	32.0801	35.3430	-143.3716	40.4900	-183	-133	59 
37.405	-0.2031	-0.1465	-0.3467	-8.4229	23.1323	15.2588	37.7820	37.7325	-138.7189	40.4900	-185	-127	60 
37.530	-1.1094	-0.0801	2.1909	-5.7373	230.4688	-7.7515	47.7411	49.8450	-124.5905	40.4800	-154	-121	49 
37.608	-0.2036	-0.3340	0.9009	5.4321	-5.3711	-41.1987	46.7798	52.2894	-123.5193	40.4800	-114	-122	45 
37.639	-0.6479	0.4458	1.0625	2.6245	-12.3901	-21.6064	42.4402	52.0258	-127.8314	40.4700	-109	-124	43 
37.670	-1.8013	0.4531	2.1650	20.0195	37.1704	2.1362	42.0831	54.1241	-128.0402	40.4600	-104	-125	46 
37.951	-1.5386	0.2446	1.7212	33.9966	57.5562	-26.3672	41.5228	57.1124	-130.1495	40.4600	-99	-135	46 
38.186	-0.5908	-0.0137	0.7734	16.4185	2.0752	-24.5361	38.8696	58.5297	-134.8737	40.4500	-95	-141	43 
38.311	-0.7461	0.0093	1.4819	-4.2725	29.2969	-16.9678	35.9528	60.3754	-137.1698	40.4300	-84	-146	38 
38.327	-0.7891	0.1123	0.5259	12.8174	-78.9185	34.8511	30.3168	54.9536	-143.1354	40.4000	-86	-143	37 
38.389	-0.0371	-0.0474	0.1309	-5.3101	-185.9131	29.4189	26.2244	47.9553	-147.0355	40.3900	-109	-140	38 
38.467	-0.2944	-0.1978	-0.9863	10.1929	-91.4307	12.0239	27.4109	37.1613	-150.0952	40.3500	-164	-144	54 
38.530	-0.0117	0.0254	0.3901	-1.0986	5.9204	-2.8076	29.2456	40.1166	-147.1838	40.3400	-178	-146	55 
38.592	0.0122	0.0078	-0.0947	-5.3101	3.1128	-17.1509	32.0361	42.5116	-146.2555	40.3300	-178	-149	54 
38.639	-0.1992	-0.0864	-0.4634	0.7324	20.8740	-38.6353	33.9862	47.7686	-147.4475	40.3500	-175	-147	56 
38.670	-1.1309	0.0073	3.0054	-2.4414	203.1250	1.8921	46.2854	60.4797	-132.4622	40.3200	-149	-150	49 
38.842	-0.5522	0.0776	0.7886	4.2114	43.1519	0.6714	43.1049	59.9854	-135.2802	40.3300	-119	-145	41 
38.936	-0.9434	-0.2295	1.3687	-10.3149	-4.3945	-3.1738	39.9573	57.8430	-136.2415	40.3100	-116	-147	43 
39.108	-1.9082	0.0571	1.9619	4.3335	-5.7983	-6.2256	39.8639	58.1396	-135.4834	40.3000	-115	-145	44 
39.108	-0.6641	0.1001	1.0669	16.6016	-59.9365	-26.3672	35.4419	56.1401	-141.5973	40.3100	-119	-152	40 
39.373	-0.4497	-0.0439	0.7852	2.4414	4.5776	24.2920	33.0249	54.0802	-143.2782	40.2700	-124	-159	44 
39.545	-0.7373	0.2212	1.0903	-3.1128	-2.1362	-4.7607	31.7999	54.3054	-142.7069	40.2400	-120	-155	43 
39.639	-0.4077	0.0894	0.3267	-10.8032	19.7144	29.2358	31.8054	51.5918	-140.4053	40.2300	-125	-152	39 
39.764	0.0103	0.0688	-0.0630	5.1270	-114.0747	11.1694	26.5759	46.6315	-144.2560	40.2000	-130	-150	34 
39.780	0.1494	-0.1431	-0.5767	3.1738	-30.5786	-30.8228	25.6696	40.7703	-150.9741	40.1900	-167	-149	51 
39.842	-0.3555	0.7173	-0.3003	34.7900	188.9038	4.8218	23.0328	45.6866	-153.0011	40.1900	-179	-158	55 
40.045	-0.5229	-0.1621	0.3623	-0.3662	13.2446	-48.5840	11.9696	44.3243	-161.6144	40.1700	-161	-169	53 
40.326	-0.7622	-0.3252	1.7295	6.4697	-2.3193	3.2959	11.5411	42.6984	-161.4496	40.1600	-161	-173	55 
40.451	-0.2534	0.0063	0.7930	-17.8833	33.0200	5.5542	11.3763	41.3141	-160.8234	40.1700	-164	-177	57 
40.498	-0.1172	-0.3657	0.6299	1.8921	-1.1597	8.9722	10.6842	39.6002	-158.4338	40.1700	-161	-180	55 
40.498	-0.3208	-0.2065	1.0444	18.9209	-5.7983	-17.1509	9.4043	37.9523	-159.2908	40.1900	-163	-176	55 
40.498	-0.8774	0.2051	1.7393	6.4697	47.7905	18.0664	10.5414	38.0731	-157.8021	40.2100	-165	-187	56 
40.670	-0.1421	-0.1357	0.5093	8.7891	5.1880	34.9731	10.8325	34.4421	-156.9012	40.2000	-166	-186	59 
40.702	-0.5479	0.3047	1.1812	-5.0049	-3.2349	-2.8076	12.9584	34.3323	-152.0343	40.2100	-164	-184	59 
40.780