5
StartTime: 2017-07-11 15:23:39.304
Time(s)	ax(g)	ay(g)	az(g)	wx(deg/s)	wy(deg/s)	wz(deg/s)	AngleX(deg)	AngleY(deg)	AngleZ(deg)	T(°)	hx	hy	hz	Pressure(Pa)	Altitude(m) 
205.637	-0.9966	-0.0425	1.8716	0.0000	-1.0986	-0.0610	-2.2192	28.0646	147.6453	44.9600	42	-222	219	100845	0.40 
205.684	-0.9937	-0.0371	1.8804	0.6714	-1.1597	-0.2441	-2.1259	28.0206	147.5848	44.9600	41	-218	219	100845	0.40 
205.840	-1.0034	-0.0337	1.8838	0.1221	0.2441	0.0000	-2.0544	28.0042	147.5574	44.9500	41	-220	216	100844	0.40 
205.903	-0.9976	-0.0415	1.8853	-0.4272	0.6104	-0.4883	-2.0215	28.0151	147.5189	44.9700	41	-220	221	100845	0.40 
206.043	-0.9985	-0.0430	1.8818	-0.5493	0.6714	-0.3662	-2.0325	28.0206	147.4255	44.9700	40	-223	221	100844	0.40 
206.090	-1.0039	-0.0410	1.8853	-0.3052	-0.1831	-0.0610	-2.0435	28.0371	147.3596	44.9500	42	-221	221	100844	0.40 
206.246	-1.0088	-0.0420	1.8813	-0.0610	-1.0376	0.4272	-1.9885	28.0151	147.3541	44.9700	43	-221	222	100844	0.40 
206.356	-1.0039	-0.0474	1.8877	0.8545	-1.4648	-0.3662	-1.8951	27.9163	147.3541	44.9800	41	-220	219	100844	0.40 
206.496	-1.0542	-0.0381	1.9673	0.8545	-7.3853	-0.1831	-1.7578	27.6361	147.3596	44.9800	41	-219	218	100844	0.40 
206.528	-1.0293	-0.0205	1.9390	4.5166	-24.6582	-7.5684	-1.6205	25.8893	146.8982	44.9700	37	-222	218	100844	0.40 
206.668	-1.0396	-0.0571	1.8994	9.1553	-54.3213	4.4556	-0.9338	21.8628	147.0355	45.0000	28	-225	212	100844	0.40 
206.715	-0.8433	-0.1030	1.9419	7.5684	-82.3364	-2.1362	-0.0934	15.6006	147.7386	44.9800	10	-224	205	100845	0.40 
206.871	-0.7939	0.0669	1.6890	14.0381	-108.2153	1.5869	0.9998	6.3940	148.0682	45.0000	-19	-227	199	100844	0.40 
206.934	-0.5317	0.0225	1.7461	9.5825	-88.3179	1.2817	1.6425	-1.6534	149.8425	44.9900	-53	-231	194	100844	0.40 
207.106	-0.3950	0.0239	1.5127	9.1553	-101.9287	2.8687	2.0984	-10.2228	151.9739	44.9900	-90	-229	192	100844	0.40 
207.137	-0.1362	-0.1138	1.4829	18.1274	-72.3267	2.0142	2.8345	-18.2813	155.2698	44.9700	-124	-230	198	100844	0.40 
207.278	-0.0298	0.0020	1.1743	9.8877	-70.3735	-10.6812	3.3838	-24.8071	157.5220	44.9800	-152	-237	208	100844	0.40 
207.356	-0.0361	0.0776	1.1807	6.2866	-42.4805	10.0098	3.8068	-28.2349	160.3894	44.9500	-171	-243	219	100845	0.40 
207.496	-0.0830	0.1016	1.2578	3.6011	-34.7290	9.0942	3.2629	-29.9652	164.1248	44.9500	-183	-245	226	100844	0.40 
207.543	-0.0156	0.0830	1.1255	0.7324	-19.4092	4.5776	3.0927	-31.0858	166.7450	44.9500	-189	-246	231	100844	0.40 
207.746	-0.1309	0.1465	1.2012	5.7373	-16.6016	6.7749	3.3728	-30.3497	169.1510	44.9500	-194	-246	241	100844	0.40 
207.793	-0.0107	0.0864	1.1079	4.1504	1.2207	6.0425	2.5708	-29.8224	173.0457	44.9500	-196	-248	243	100844	0.40 
207.949	-0.0938	0.1260	1.2070	0.1221	17.5781	-10.1318	2.6147	-27.4109	174.6826	44.9600	-197	-247	243	100844	0.40 
208.059	-0.0044	0.0698	1.1113	1.7700	1.4648	1.2817	2.3291	-25.3015	177.2974	44.9500	-192	-251	241	100844	0.40 
208.121	-0.0313	0.0767	1.1519	-0.5493	-3.9673	2.6245	1.9336	-23.6426	179.7089	44.9600	-195	-249	243	100843	0.40 
208.168	-0.0381	0.1021	1.1577	-1.5869	-0.9155	-2.0142	1.4667	-22.2968	-178.0334	44.9600	-197	-248	241	100843	0.40 
208.293	-0.0493	0.1016	1.1494	-0.6104	2.5024	0.0000	1.1920	-20.8685	-176.0779	44.9600	-196	-247	244	100843	0.40 
208.371	-0.0469	0.0791	1.1709	-0.1831	0.6714	0.9155	0.9668	-19.3359	-174.1498	44.9600	-194	-249	246	100843	0.40 
208.537	-0.0371	0.0889	1.1650	-0.1221	1.0376	1.4648	0.8130	-18.0396	-172.3590	44.9600	-196	-249	246	100843	0.40 
208.568	-0.0444	0.0923	1.1577	-0.1831	0.4883	0.0000	0.7196	-16.8695	-170.6781	44.9500	-194	-248	243	100843	0.40 
208.740	-0.0405	0.0776	1.1675	-0.3052	0.7935	-0.9766	0.6647	-15.6940	-169.2004	44.9500	-196	-249	243	100843	0.40 
208.881	-0.0479	0.0801	1.1670	-0.6104	0.0610	-0.3052	0.5933	-14.6118	-167.8107	44.9500	-194	-247	243	100843	0.40 
208.943	-0.0786	0.0117	1.2129	-2.0142	-2.0142	-1.4038	0.5823	-13.6230	-166.6406	44.9600	-196	-247	242	100843	0.40 
209.084	0.2285	0.2241	1.1470	-6.5918	-5.6152	13.3667	0.2527	-12.8046	-165.2728	44.9700	-195	-247	245	100843	0.40 
209.099	-0.1489	0.1157	1.1567	-3.9673	1.6479	-8.7891	-0.4669	-11.9806	-163.8116	44.9500	-196	-242	243	100844	0.40 
209.287	0.0391	0.0664	0.9604	-0.6104	39.6729	-17.6392	-0.1593	-11.5631	-163.7952	44.9600	-194	-245	242	100844	0.40 
209.334	-0.0146	-0.0186	1.2183	-5.2490	56.7627	-18.3105	-0.2087	-5.6635	-163.9325	44.9600	-182	-247	233	100844	0.40 
209.490	-0.0786	0.2437	1.2266	-7.8735	65.9790	-4.9438	-0.3461	0.8075	-164.7400	44.9400	-161	-249	227	100844	0.40 
209.553	-0.2520	0.1001	1.4746	-12.3901	68.1152	14.4653	-1.0547	8.3496	-163.3447	44.9400	-141	-246	220	100844	0.40 
209.693	-0.4224	0.0874	1.5859	-6.2866	70.3735	-11.9629	-2.0874	16.0236	-162.5647	44.9300	-118	-241	209	100844	0.40 
209.756	-0.4438	0.0200	1.7109	-8.9111	84.7778	1.7700	-2.6147	23.8953	-162.8339	44.9400	-95	-240	203	100844	0.40 
209.896	-0.5635	0.0596	1.7095	-14.6484	79.0405	-8.5449	-4.1089	31.3440	-164.4873	44.9300	-65	-236	197	100844	0.40 
209.928	-0.7104	0.0723	1.7661	-14.6484	67.8711	4.6387	-5.9216	37.9083	-167.0416	44.9500	-36	-232	198	100844	0.40 
210.131	-0.8306	-0.0093	1.9028	-8.6670	65.3687	-21.1792	-8.6023	43.4674	-170.9967	44.9400	-12	-229	202	100844	0.40 
210.178	-0.9780	0.0293	1.8301	-6.2256	54.2603	2.8076	-11.0852	47.9169	-175.8417	44.9300	14	-227	213	100844	0.40 
210.334	-1.0737	-0.0483	1.9141	-4.8828	41.6870	-1.9531	-12.2333	51.5369	-178.9508	44.9300	32	-223	219	100844	0.40 
210.334	-1.0815	0.0200	1.9478	2.9297	19.4702	2.8076	-13.1891	52.7838	177.5610	44.9400	47	-220	224	100843	0.40 
210.537	-1.0942	0.0142	1.8589	0.6104	11.0474	3.1128	-12.6672	52.6685	175.4407	44.9400	53	-222	233	100842	0.40 
210.599	-1.1006	0.0127	1.8789	-1.2817	1.6479	6.8359	-12.0740	51.9983	173.8641	44.9500	55	-224	233	100842	0.40 
210.771	-1.0908	-0.0127	1.8896	-3.4180	0.8545	3.5400	-11.3269	50.8942	172.7216	44.9400	57	-230	234	100842	0.40 
210.803	-1.0747	0.0015	1.8774	-2.5635	-3.7231	0.1831	-11.2445	49.4769	170.9912	44.9600	55	-225	232	100843	0.40 
210.974	-1.0596	-0.0063	1.8838	-1.6479	-2.5635	1.8311	-10.9149	47.9718	169.5026	44.9600	55	-225	232	100843	0.40 
210.974	-1.0557	-0.0352	1.8872	-0.7324	-1.9531	-1.4038	-10.5634	46.6479	168.1732	44.9600	54	-227	231	100842	0.40 
211.428	-1.0825	-0.0044	1.8867	-0.3052	-1.7700	0.4883	-10.4150	45.3680	166.3330	44.9600	56	-222	234	100843	0.40 
211.428	-1.0659	-0.0029	1.8813	0.3662	-0.5493	-1.7700	-10.0031	44.3243	165.0696	44.9500	54	-223	231	100843	0.40 
211.428	-1.0488	-0.0083	1.8779	0.2441	0.4883	-2.4414	-9.6625	43.3246	163.7073	44.9600	54	-223	231	100842	0.40 
211.579	-1.0630	-0.0059	1.8774	-0.6714	-1.2817	0.1221	-9.3109	42.3633	162.4823	44.9700	55	-222	231	100842	0.40 
211.626	-1.0542	-0.0059	1.8809	-0.1221	-0.8545	-1.2817	-8.9539	41.4240	161.3617	44.9700	56	-223	230	100842	0.40 
211.766	-1.0654	-0.0059	1.8760	-0.1831	-0.9766	-1.0986	-8.6902	40.6165	160.1532	44.9600	54	-226	230	100842	0.40 
211.782	-1.0552	-0.0112	1.8799	-0.7935	-0.5493	0.1221	-8.3276	39.8694	159.3073	44.9800	51	-223	231	100842	0.40 
211.845	-1.0532	-0.0156	1.8779	-1.2207	-0.6714	-0.4272	-8.0200	39.1333	158.4613	44.9700	52	-224	232	100842	0.40 
211.954	-1.0474	-0.0137	1.8770	-1.1597	-1.5259	0.0610	-7.7014	38.3588	157.6923	44.9900	52	-222	228	100842	0.40 
212.110	-1.0474	-0.0186	1.8838	-1.2207	-0.6104	-0.4883	-7.4872	37.6776	156.8958	44.9700	53	-223	228	100842	0.40 
212.204	-1.0493	-0.0151	1.8813	-1.4038	-1.0986	-0.3052	-7.2675	37.0074	156.1377	44.9900	53	-223	224	100842	0.40 
212.345	-1.0381	-0.0210	1.8877	-1.0986	-0.3662	0.7935	-6.9653	36.4362	155.5115	44.9900	51	-223	230	100842	0.40 
212.345	-1.0513	-0.0210	1.8901	-0.6714	-1.8311	-0.1831	-6.6907	35.8759	154.8907	44.9900	51	-223	229	100842	0.40 
212.548	-1.0659	-0.0254	1.8926	0.0000	-5.0659	-1.0376	-6.4160	35.1398	154.2810	44.9800	51	-223	226	100842	0.40 
212.563	-1.0474	-0.0137	1.9038	1.6479	-12.5122	-2.9297	-6.0315	33.7939	153.6713	45.0000	48	-223	225	100843	0.40 
212.782	-1.0225	-0.0166	1.8833	2.0142	-18.6768	-0.7935	-5.5481	31.9482	153.2428	44.9700	44	-221	225	100843	0.40 
212.891	-0.9824	-0.0078	1.8965	3.1128	-28.4424	-0.5493	-4.8889	29.3884	153.1055	44.9900	40	-221	220	100843	0.40 
213.032	-0.9287	-0.0083	1.8755	2.2583	-33.9355	-2.6245	-4.3286	26.1694	152.9901	45.0100	32	-223	218	100843	0.40 
213.032	-0.8433	-0.0088	1.8516	2.0752	-47.8516	-4.1504	-3.8892	22.2583	152.8528	45.0100	21	-224	214	100843	0.40 
213.173	-0.7935	-0.0098	1.8770	8.0566	-52.0020	-6.2866	-3.3124	17.6495	152.9791	45.0100	4	-224	204	100843	0.40 
213.423	-0.7461	0.0269	1.7856	10.6201	-58.1665	0.3662	-2.1588	12.5629	153.0560	45.0100	-14	-223	199	100842	0.40 
213.503	-0.5977	0.0625	1.7915	5.6763	-57.7393	-2.0752	-1.4337	7.3828	154.2755	44.9900	-28	-225	194	100843	0.40 
213.675	-0.5103	0.0303	1.7534	6.4697	-59.6924	-2.3804	-0.7251	1.9061	155.4401	45.0000	-53	-226	195	100842	0.40 
213.815	-0.4028	0.1313	1.6533	7.1411	-61.2793	7.9346	-0.0604	-3.4607	157.2528	45.0100	-73	-230	193	100842	0.40 
213.815	-0.2480	0.0229	1.5078	7.6904	-67.4438	4.6997	0.2307	-9.2450	160.4938	45.0000	-101	-226	194	100842	0.40 
213.815	-0.2139	0.0278	1.4434	12.7563	-57.4341	1.8921	0.9943	-13.8483	162.7789	45.0000	-120	-233	195	100842	0.40 
213.862	-0.1323	0.1069	1.3618	5.4932	-48.8281	-4.0894	1.4886	-17.5452	164.8499	44.9900	-137	-235	200	100842	0.40 
213.987	-0.1831	0.0327	1.3418	8.5449	-45.4102	3.5400	1.9501	-19.8798	167.3218	45.0000	-154	-239	209	100842	0.40 
214.050	-0.1631	0.0894	1.2856	9.0332	-57.4951	10.0708	2.1149	-22.6593	170.5518	45.0000	-168	-243	218	100842	0.40 
214.440	-0.1655	0.0283	1.3413	0.3662	-66.2231	27.5879	1.5710	-24.9939	174.5947	44.9900	-184	-242	220	100843	0.40 
214.440	-0.0659	-0.0054	1.1904	0.0000	-19.1040	17.5781	0.8240	-26.7023	178.5223	44.9900	-196	-235	229	100843	0.40 
214.534	-0.0776	0.1572	1.0962	2.1362	-2.3804	1.0986	0.8020	-25.7684	-179.6045	44.9900	-198	-236	236	100843	0.40 
214.534	-0.0605	-0.0010	1.1646	-0.6104	11.2915	0.1221	0.2252	-23.2965	-176.6547	44.9900	-200	-237	234	100843	0.40 
214.675	-0.0518	0.0283	1.1973	5.3711	0.9155	-14.0381	0.3516	-21.1871	-175.2319	44.9900	-196	-239	231	100843	0.40 
214.768	-0.0474	0.0864	1.1826	1.7700	-4.5776	-10.0708	0.9064	-20.0336	-174.6167	44.9800	-194	-239	234	100843	0.40 
215.034	-0.0513	0.1074	1.1484	2.6245	-3.6011	-9.5215	1.1426	-19.1766	-173.5071	44.9800	-191	-246	237	100842	0.40 
215.034	-0.0498	0.1362	1.1841	0.2441	-0.9766	-3.4790	1.5106	-18.0505	-172.6282	44.9900	-189	-248	235	100843	0.40 
215.112	-0.0522	0.0981	1.1548	0.0610	-0.6714	-1.5869	1.5161	-16.9849	-171.1450	44.9900	-190	-247	237	100843	0.40 
215.190	-0.0386	0.1226	1.1572	0.3662	0.1831	-1.4038	1.5930	-15.8368	-169.8706	44.9800	-192	-245	240	100843	0.40 
215.253	-0.0503	0.1079	1.1714	-0.4272	0.4272	0.6714	1.6974	-14.7217	-168.6072	44.9800	-187	-248	238	100843	0.40 
215.269	-0.0591	0.1250	1.1758	-0.8545	0.4883	-0.3662	1.7139	-13.6890	-167.4371	44.9700	-186	-252	240	100843	0.40 
215.472	-0.0532	0.1216	1.1772	-0.4883	-0.1831	0.8545	1.7413	-12.7112	-166.1627	44.9700	-187	-247	240	100842	0.40 
215.472	-0.0522	0.1182	1.1836	-0.6104	1.4038	2.2583	1.7633	-11.7279	-164.9048	44.9800	-188	-249	234	100842	0.40 
215.630	-0.0493	0.1143	1.1689	-0.4883	1.7700	-1.0376	1.7194	-10.8270	-163.6304	44.9600	-190	-248	241	100842	0.40 
215.836	-0.0493	0.1040	1.1743	-0.6714	0.1221	2.3193	1.7688	-9.9207	-162.5208	44.9800	-189	-248	237	100842	0.40 
215.914	-0.0508	0.0923	1.1719	-0.6104	0.6104	1.5259	1.7413	-9.1022	-161.3452	44.9700	-191	-245	236	100842	0.40 
216.084	-0.0562	0.0938	1.1846	-1.1597	1.0376	3.2349	1.7139	-8.2892	-160.2191	44.9700	-188	-245	235	100843	0.40 
216.300	-0.0488	0.0933	1.1958	-0.2441	2.4414	2.0142	1.7139	-7.4542	-159.1479	44.9600	-187	-244	233	100843	0.40 
216.500	-0.0610	0.0889	1.1816	-0.7324	1.0376	0.3052	1.7194	-6.8115	-158.2581	44.9600	-190	-240	234	100843	0.40 
216.754	-0.0420	0.0835	1.1958	-0.4272	0.1831	2.3193	1.7633	-6.1304	-157.3901	44.9600	-192	-248	233	100843	0.40 
216.770	-0.0542	0.0933	1.1987	-0.2441	0.9766	1.0376	1.8127	-5.5536	-156.6815	44.9700	-189	-244	234	100843	0.40 
216.770	-0.0503	0.0796	1.1943	-0.6714	0.6104	1.0986	1.8512	-4.9933	-155.8795	44.9700	-190	-247	236	100842	0.40 
216.770	-0.0479	0.0737	1.1880	-0.1221	0.1831	0.7935	1.8951	-4.4989	-155.1434	44.9700	-190	-243	238	100842	0.40 
216.770	-0.0742	0.1064	1.2305	-0.3662	2.2583	-1.8311	1.9830	-3.9441	-154.6875	44.9500	-190	-247	232	100842	0.40 
216.838	-0.0508	0.0933	1.2080	-0.0610	-1.0376	-1.2207	2.0709	-3.5815	-154.1492	44.9600	-188	-242	234	100842	0.40 
217.017	-0.0576	0.0894	1.1890	-1.0376	-1.7700	1.5869	2.1313	-3.4552	-153.6383	44.9300	-189	-243	235	100842	0.40 
217.155	-0.0532	0.0786	1.2056	-0.3662	-2.0142	-1.2207	2.1478	-3.2300	-153.2043	44.9500	-187	-244	234	100842	0.40 
217.255	-0.0464	0.1045	1.1714	0.1831	-1.0376	-2.3804	2.2137	-3.1366	-152.9132	44.9600	-189	-243	241	100842	0.40 
217.255	-0.0854	0.0977	1.2046	-1.4648	-1.5869	-2.3804	2.2852	-2.9114	-152.6715	44.9600	-190	-245	232	100842	0.40 
217.371	-0.0576	0.0649	1.1938	1.4648	-3.6011	-2.5635	2.4225	-2.7576	-152.4957	44.9800	-188	-246	235	100842	0.40 
217.656	-0.0806	0.2329	1.1855	-5.0049	8.2397	1.9531	2.7026	-2.5928	-152.6111	44.9600	-186	-248	239	100842	0.40 
217.772	0.0767	0.0200	1.1885	-2.9907	2.2583	7.8735	2.2742	-1.7578	-150.2161	44.9500	-192	-244	236	100842	0.40 
217.788	-0.0557	0.0479	1.2354	0.4272	3.9673	3.1128	2.1808	-1.1646	-149.7986	44.9600	-196	-243	234	100842	0.40 
217.788	-0.0293	0.0513	1.1250	-0.7324	-11.7188	-2.6855	2.1204	-1.7358	-149.6118	44.9600	-192	-240	235	100842	0.40 
217.919	-0.0532	0.0850	1.1851	-2.0752	-2.5024	-6.8970	2.1478	-1.7468	-149.8370	44.9500	-193	-243	238	100842	0.40 
217.988	0.0220	0.0918	1.1323	-3.1738	13.6108	-4.8828	2.1149	-1.1591	-150.2051	44.9600	-191	-240	236	100842	0.40 
218.141	0.0293	0.0649	1.0854	-3.5400	29.6631	-33.2642	1.7413	0.5988	-151.7377	44.9600	-182	-244	231	100842	0.40 
218.289	-0.0127	0.2310	1.2778	-4.3335	40.7104	-5.7983	1.7908	4.8889	-153.2208	44.9600	-168	-253	225	100842	0.40 
218.304	-0.0825	0.2124	1.2661	-6.1035	56.7627	4.3335	1.6864	9.1846	-152.9462	44.9700	-154	-251	219	100842	0.40 
218.441	-0.0806	0.1040	1.4624	-6.5918	54.3213	12.2070	1.5656	14.2273	-151.9519	44.9700	-138	-242	213	100842	0.40 
218.489	-0.1724	0.0327	1.6299	-6.3477	64.1479	-4.6387	1.1920	19.0173	-151.4685	44.9600	-124	-240	206	100842	0.40 
218.489	-0.2876	0.0962	1.6035	-8.9722	65.5518	1.3428	0.7141	24.0930	-151.8420	44.9500	-107	-237	202	100841	0.40 
218.643	-0.3760	0.1177	1.6279	-9.7046	62.2559	2.8687	0.0494	29.5148	-152.3035	44.9500	-86	-238	201	100841	0.40 
218.706	-0.5239	0.0444	1.7817	-10.5591	57.8613	12.6343	-0.4779	34.7113	-152.7594	44.9500	-65	-236	198	100841	0.40 
218.859	-0.5791	0.0410	1.6904	-7.9346	57.9834	3.3569	-1.2305	38.8092	-153.7921	44.9600	-47	-232	201	100841	0.40 
218.891	-0.7021	-0.0156	1.8306	-10.4370	62.1338	-0.0610	-2.4939	43.7476	-155.9729	44.9400	-30	-229	199	100841	0.40 
219.160	-0.8516	-0.0532	1.8887	-3.1738	51.5747	-8.9722	-4.5154	47.9553	-159.5599	44.9600	-10	-230	203	100841	0.40 
219.260	-0.9365	-0.0273	1.8120	-7.0801	37.9639	-11.9019	-7.2620	50.6744	-164.4763	44.9400	7	-225	207	100841	0.40 
219.407	-0.9946	0.0171	1.9111	-5.7373	39.9170	-12.1460	-10.5139	52.9596	-170.2167	44.9300	29	-221	215	100841	0.40 
219.546	-1.0498	-0.0215	1.9131	-6.5918	27.2217	-2.0142	-12.8540	54.4922	-175.0507	44.9400	40	-221	221	100841	0.40 
219.793	-1.1230	-0.0659	1.8745	-3.7231	15.9302	-0.3052	-14.1174	54.9976	-178.7201	44.9300	49	-219	223	100841	0.40 
219.793	-1.1016	-0.0654	1.8970	-1.2207	3.7842	-2.1973	-14.8590	54.4043	178.0280	44.9200	55	-216	229	100841	0.40 
219.793	-1.0742	-0.0396	1.8784	1.0376	-0.8545	0.2441	-14.7546	52.8992	175.5341	44.9300	55	-215	227	100841	0.40 
219.862	-1.0630	-0.0332	1.8755	1.5869	-0.7324	2.6855	-14.1284	51.3940	173.6169	44.9000	57	-218	226	100841	0.40 
220.248	-1.0493	-0.0352	1.8755	0.3662	-2.3193	1.8921	-13.3868	49.8944	172.0239	44.9300	57	-218	230	100841	0.40 
220.248	-1.0576	-0.0488	1.8809	1.3428	-3.1128	0.4883	-12.6123	48.4607	170.6781	44.9200	56	-221	229	100841	0.40 
220.248	-1.0488	-0.0278	1.8755	0.8545	-2.1973	-1.8921	-12.2717	46.9281	168.7775	44.9100	55	-220	228	100841	0.40 
220.495	-1.0366	-0.0342	1.8677	0.0000	3.1128	-1.3428	-11.8597	45.7855	167.0636	44.9200	56	-220	227	100841	0.40 
220.511	-1.0542	-0.0293	1.8804	0.1221	-2.2583	1.4038	-11.3928	44.7528	165.6848	44.9100	57	-219	228	100841	0.40 
220.695	-1.0474	-0.0322	1.8779	-0.3662	-1.7700	2.9297	-10.7117	43.6212	164.6741	44.9400	57	-223	229	100841	0.40 
220.711	-1.0493	-0.0317	1.8818	-1.0986	-2.3804	1.8921	-10.1733	42.5665	163.6578	44.9200	56	-218	228	100841	0.40 
220.764	-1.0483	-0.0303	1.8799	-1.0376	-1.5259	-0.4883	-9.8492	41.5393	162.5098	44.9400	55	-222	226	100841	0.40 
220.764	-1.0542	-0.0332	1.8828	-0.4883	-1.3428	1.2207	-9.4373	40.7208	161.5100	44.9600	54	-221	229	100841	0.40 
220.849	-1.0483	-0.0322	1.8892	-0.6714	-4.4556	0.0000	-9.0472	39.7540	160.5267	44.9500	53	-219	225	100841	0.40 
220.964	-1.0195	-0.0327	1.8838	-0.0610	-3.0518	-0.9766	-8.6902	38.6499	159.6094	44.9700	51	-221	227	100841	0.40 
221.127	-1.0200	-0.0376	1.8706	-0.3662	-1.8921	-0.4272	-8.3221	37.8040	158.7305	44.9600	51	-221	223	100841	0.40 
221.428	-1.0205	-0.0278	1.8853	0.0000	-1.2817	-0.0610	-7.9980	37.0898	157.8625	44.9400	50	-220	222	100841	0.40 
221.528	-1.0098	-0.0386	1.8755	0.1221	-1.6479	-1.2817	-7.6794	36.3373	157.0166	44.9800	51	-219	226	100841	0.40 
221.767	-1.0244	-0.0400	1.8794	0.4272	-3.0518	-0.0610	-7.3773	35.6396	156.1707	44.9800	49	-222	223	100841	0.40 
221.883	-1.0308	-0.0298	1.8901	0.9766	-3.6621	0.4272	-7.0148	34.9365	155.4730	44.9800	47	-216	221	100841	0.40 
222.130	-1.0088	-0.0420	1.8823	1.5869	-6.8359	-0.8545	-6.5369	34.0137	154.9896	44.9900	48	-219	224	100841	0.40 
222.330	-1.0176	-0.0264	1.9048	2.1973	-8.9722	-3.4180	-6.1853	32.9260	154.2261	44.9800	46	-218	221	100841	0.40 
222.330	-0.9990	-0.0239	1.8911	2.9907	-14.2212	-2.5635	-5.7349	31.5143	153.5559	45.0000	45	-218	221	100841	0.40 
222.330	-0.9609	-0.0122	1.8853	3.0518	-17.1509	-1.3428	-5.1416	29.8553	153.1989	45.0000	42	-218	215	100841	0.40 
222.330	-0.9297	-0.0059	1.8799	2.6245	-20.3857	-1.1597	-4.5703	27.8613	153.0176	45.0000	36	-221	215	100841	0.40 
222.330	-0.8887	0.0039	1.8774	2.2583	-26.1230	0.0610	-3.9990	25.4993	153.0121	45.0000	30	-217	214	100841	0.40 
222.531	-0.8633	-0.0283	1.9180	3.5400	-30.5786	-5.3711	-3.5321	22.8131	153.0286	44.9900	23	-216	206	100841	0.40 
222.547	-0.7769	0.0288	1.8770	3.9673	-39.6118	-3.9063	-3.1750	19.1931	152.6495	45.0000	13	-224	206	100841	0.40 
222.609	-0.7070	0.0181	1.8398	9.4604	-44.4946	-7.3242	-2.4115	15.1721	152.8583	45.0000	-1	-221	198	100841	0.40 
222.797	-0.6592	0.0444	1.7827	5.0049	-40.5273	2.6855	-1.3843	11.2061	153.4406	45.0100	-18	-222	197	100841	0.40 
222.875	-0.5869	0.0615	1.7671	5.5542	-43.8843	-5.7373	-0.9174	7.4817	154.5062	45.0000	-31	-224	194	100841	0.40 
222.969	-0.5044	0.0918	1.7051	10.9863	-57.5562	11.1694	0.0165	3.0487	156.0223	45.0000	-50	-224	191	100841	0.40 
223.031	-0.4048	0.0195	1.6880	6.1035	-62.5000	9.0942	0.7526	-2.1533	158.4833	45.0000	-71	-230	190	100841	0.40 
223.234	-0.3462	0.0469	1.6040	9.4604	-62.5610	-1.2207	1.2360	-7.5531	160.5377	44.9900	-95	-228	194	100841	0.40 
223.406	-0.2378	0.1113	1.4819	10.4980	-56.9458	-3.4790	2.0929	-12.4365	162.0868	45.0100	-117	-229	197	100841	0.40 
223.406	-0.1528	0.1235	1.3564	8.3618	-58.4717	6.5918	2.9114	-16.7377	164.1302	45.0000	-133	-236	202	100841	0.40 
223.488	-0.1606	0.0791	1.2485	4.5776	-49.7437	8.7280	2.8839	-20.2203	166.8164	45.0000	-153	-238	208	100841	0.40 
223.566	0.0781	0.0190	1.1719	6.6528	-61.8286	35.7056	2.2302	-23.3569	171.4362	44.9800	-169	-240	217	100841	0.40 
223.566	0.1367	0.1255	1.1123	10.9253	-43.7622	16.1133	2.1533	-25.3180	175.2869	44.9800	-185	-238	224	100841	0.40 
223.754	0.0132	0.0347	1.2393	4.9438	-32.3486	1.6479	1.8018	-24.5160	178.6047	44.9700	-192	-237	227	100841	0.40 
223.832	-0.0991	0.0952	1.1260	0.3662	-3.4180	-0.3052	1.9391	-24.0436	179.8627	44.9700	-193	-240	234	100841	0.40 
223.972	0.0020	0.0278	1.1680	1.5259	3.1738	-2.3804	1.4996	-22.3846	-177.5940	44.9900	-189	-239	236	100841	0.40 
224.035	-0.0112	0.1001	1.1401	2.6855	-8.2397	-20.3857	2.0270	-21.2476	-176.8964	44.9600	-189	-244	233	100841	0.40 
224.129	-0.0669	0.0894	1.2266	2.4414	-4.3945	-1.7090	2.4390	-20.1819	-176.0999	44.9800	-185	-251	235	100840	0.40 
224.176	-0.0303	0.1069	1.1108	1.8921	-4.0894	-4.7607	2.3401	-19.4733	-174.2157	44.9700	-191	-247	235	100841	0.40 
224.176	-0.0571	0.1021	1.1597	-2.1362	-2.9297	5.7983	2.2522	-18.3472	-172.8314	44.9900	-190	-245	238	100841	0.40 
224.332	-0.0317	0.1191	1.1836	-0.1221	0.2441	0.3662	2.1039	-17.1936	-171.1285	44.9600	-190	-244	238	100840	0.40 
224.363	-0.0396	0.1006	1.1680	0.4272	1.7700	0.0000	2.0490	-16.1938	-169.6619	44.9600	-192	-243	237	100840	0.40 
224.597	-0.0439	0.0977	1.1450	-0.1831	-1.6479	0.6104	1.9720	-15.1337	-168.1293	44.9700	-191	-246	236	100840	0.40 
224.676	-0.0439	0.1050	1.1670	-0.6104	1.7090	1.9531	1.8732	-13.9911	-166.7010	44.9500	-192	-245	236	100840	0.40 
224.754	-0.0542	0.0991	1.1665	-0.1221	0.2441	-0.2441	1.8402	-12.9254	-165.3552	44.9500	-192	-242	234	100840	0.40 
224.769	-0.0405	0.0928	1.1582	-0.3662	1.2207	1.8921	1.7963	-11.9257	-164.0314	44.9400	-193	-245	240	100841	0.40 
225.004	-0.0498	0.0981	1.1699	-0.7935	1.4648	0.4883	1.7633	-10.9534	-162.8613	44.9600	-192	-243	239	100840	0.40 
225.269	-0.0425	0.0996	1.1738	-0.9766	0.1831	0.0000	1.7358	-10.0470	-161.7462	44.9500	-193	-244	238	100840	0.40 
225.394	-0.0444	0.0869	1.1680	-0.6714	1.6479	1.9531	1.6754	-9.2560	-160.6641	44.9500	-191	-244	239	100840	0.40 
225.543	-0.0586	0.0981	1.1909	-0.0610	1.3428	-0.2441	1.6809	-8.3661	-159.6808	44.9400	-193	-242	233	100840	0.40 
225.543	-0.0474	0.0796	1.1689	-0.5493	1.1597	0.0000	1.6919	-7.6190	-158.5931	44.9400	-192	-248	234	100840	0.40 
225.606	-0.0552	0.0879	1.1880	-0.4272	1.2817	1.7090	1.7194	-6.8884	-157.7637	44.9200	-192	-245	233	100840	0.40 
225.606	-0.0503	0.0840	1.1929	-0.3052	1.2817	0.6104	1.7523	-6.1963	-156.9287	44.9200	-190	-245	232	100840	0.40 
225.606	-0.0469	0.0811	1.1851	-0.3662	0.7935	0.4883	1.8073	-5.6195	-156.1871	44.9400	-188	-246	233	100840	0.40 
225.793	-0.0498	0.0815	1.1958	-0.4883	0.7935	0.5493	1.8457	-5.0757	-155.5389	44.9400	-189	-244	233	100840	0.40 
225.840	-0.0513	0.0835	1.1958	-0.3052	0.5493	0.0610	1.8951	-4.5703	-154.9182	44.9300	-191	-241	231	100839	0.40 
225.949	-0.0483	0.0815	1.2002	-0.1221	0.1221	0.4883	1.9501	-4.1254	-154.2755	44.9500	-188	-242	230	100840	0.40 
226.168	-0.0654	0.0801	1.1826	-0.1221	-2.0752	-2.0752	2.0380	-3.8892	-153.8965	44.9300	-191	-243	232	100840	0.40 
226.246	-0.0396	0.0840	1.2021	-0.1831	-1.8311	1.1597	2.1423	-3.6035	-153.5120	44.9300	-191	-244	230	100840	0.40 
226.324	-0.0513	0.0908	1.1899	0.0610	-1.0986	-0.7324	2.2467	-3.4552	-153.1659	44.9400	-187	-244	234	100840	0.40 
226.481	-0.0493	0.0894	1.1880	-0.3662	-1.8311	-1.8921	2.3456	-3.2739	-152.8143	44.9400	-190	-243	237	100840	0.40 
226.559	-0.0498	0.0918	1.1802	0.0610	-2.5024	-0.9766	2.4554	-3.1421	-152.5452	44.9300	-192	-244	232	100840	0.40 
226.684	-0.0498	0.0962	1.1768	-0.0610	-2.0142	-1.4038	2.5653	-3.0267	-152.2705	44.9300	-191	-245	234	100840	0.40 
226.871	-0.0488	0.0972	1.1777	0.0000	-2.0752	-1.2817	2.6642	-2.9004	-151.9958	44.9300	-192	-245	237	100840	0.40 
226.871	-0.0469	0.0981	1.1704	0.0000	-2.0142	-1.2817	2.7740	-2.7795	-151.7212	44.9300	-192	-244	236	100840	0.40 
227.121	-0.0454	0.1011	1.1704	0.0000	-2.6245	-1.6479	2.8894	-2.6752	-151.5179	44.9300	-190	-246	240	100841	0.40 
227.168	-0.0649	0.0776	1.1543	-1.4648	-0.7324	6.2256	2.8784	-2.5653	-151.1774	44.9300	-189	-242	237	100840	0.40 
227.262	-0.0698	0.1226	1.2207	0.5493	5.0049	1.4038	2.9553	-1.8842	-150.5237	44.9200	-191	-244	238	100840	0.40 
227.262	-0.0547	0.0645	1.1138	-0.1221	-3.7231	-2.6855	2.9938	-1.8787	-149.9634	44.9100	-188	-247	238	100840	0.40 
227.340	-0.0581	0.1045	1.1675	-0.3662	-0.7935	-0.5493	3.0707	-1.6589	-149.9524	44.9100	-189	-244	237	100841	0.40 
227.621	-0.1816	0.1528	1.1836	-3.9673	8.3008	5.6152	2.9993	-1.3348	-149.9304	44.9100	-191	-243	235	100840	0.40 
227.637	0.0190	0.0400	1.1636	-1.4648	5.1270	5.0049	2.9498	-0.7745	-149.3701	44.9100	-189	-242	232	100840	0.40 
227.715	0.0713	0.1753	1.0835	0.0610	22.1558	-27.0996	2.8729	0.3131	-150.5621	44.9100	-186	-244	229	100840	0.40 
227.903	0.0479	0.1514	1.2163	-0.7935	42.2974	-6.1646	3.0872	3.8892	-151.6992	44.9300	-176	-247	227	100840	0.40 
228.012	-0.0991	0.1206	1.2461	-0.9155	42.5415	3.2959	3.3344	7.7893	-151.1334	44.9100	-164	-250	224	100840	0.40 
228.168	-0.1899	0.1426	1.3647	-5.0659	51.0864	-1.5869	3.1091	12.3816	-150.7104	44.9100	-149	-247	220	100839	0.40 
228.215	-0.3159	0.1035	1.4604	-7.0801	51.9409	0.0000	2.6862	17.3914	-150.7104	44.9000	-134	-245	213	100839	0.40 
228.324	-0.3955	0.1255	1.5610	-1.7090	53.7109	-0.9766	2.3950	22.9065	-151.1060	44.9200	-111	-241	206	100839	0.40 
228.324	-0.4282	0.0532	1.6089	0.5493	53.4668	-1.3428	2.4664	27.8723	-151.5399	44.9100	-92	-242	203	100839	0.41 
228.548	-0.4585	0.1582	1.7119	-2.2583	54.8096	-6.4697	2.1368	32.4976	-152.9736	44.9000	-75	-242	205	100839	0.41 
228.627	-0.5601	0.1055	1.7446	-5.0659	53.3447	-6.2866	1.4777	36.8152	-154.7424	44.9100	-56	-241	207	100839	0.41 
228.830	-0.6479	0.1382	1.7861	-8.2397	54.0771	-4.4556	0.1593	40.9845	-157.3187	44.9100	-33	-239	210	100839	0.41 
228.939	-0.7290	0.0688	1.8413	-11.1084	52.1240	-8.4839	-1.4832	44.9341	-160.1587	44.9100	-16	-237	213	100839	0.40 
229.205	-0.8037	0.0806	1.8413	-9.0332	46.0205	-10.6201	-4.1144	48.2849	-164.3719	44.9100	1	-236	213	100839	0.40 
229.236	-0.9248	0.0762	1.9053	-12.6343	36.0107	-7.9346	-6.7786	50.8008	-168.8708	44.9100	19	-233	221	100839	0.40 
229.283	-1.0039	0.0498	1.9033	-10.1318	32.8979	-8.6060	-9.7394	52.4872	-173.4357	44.9000	35	-231	220	100839	0.40 
229.392	-1.0474	0.0215	1.8652	-3.9673	13.6108	1.7090	-10.7886	53.1573	-176.4404	44.8900	42	-228	227	100840	0.40 
229.392	-1.0474	0.0391	1.8955	-4.2725	8.3008	1.0986	-11.2720	52.6575	-179.1486	44.9000	48	-225	230	100840	0.40 
229.392	-1.0239	0.0303	1.8809	-3.2959	-0.4272	1.5259	-11.3104	51.5204	178.7476	44.8900	52	-226	231	100840	0.40 
229.595	-1.0244	0.0313	1.8828	-3.7842	-1.1597	0.0000	-11.3544	50.0537	176.7426	44.9000	49	-225	229	100841	0.40 
229.673	-1.0059	-0.0010	1.8779	-2.6855	-3.1738	3.4180	-11.0797	48.5596	175.2484	44.8800	50	-225	227	100840	0.40 
229.830	-0.9985	-0.0044	1.8882	-1.4038	-2.7466	0.3052	-10.7172	47.0544	173.8147	44.8700	49	-223	226	100840	0.40 
229.923	-0.9883	-0.0093	1.8799	-1.4038	-1.0986	-2.1362	-10.4810	45.5768	172.2162	44.8900	50	-223	226	100840	0.40 
230.033	-0.9893	0.0078	1.8647	-0.5493	-3.5400	-0.3662	-10.2393	44.1431	170.5078	44.8800	48	-220	225	100840	0.40 
230.033	-0.9985	0.0015	1.8799	0.4272	-2.5635	-0.7324	-9.9042	42.8851	168.9862	44.8800	47	-222	224	100840	0.40 
230.267	-0.9951	0.0059	1.8818	0.4272	-2.0752	0.3662	-9.4208	41.6931	167.6678	44.8800	47	-222	222	100840	0.40 
230.267	-0.9790	0.0010	1.8765	0.1221	-2.0752	0.0610	-8.8879	40.6274	166.5857	44.8700	47	-220	226	100840	0.40 
230.423	-0.9800	0.0054	1.8828	0.3662	-3.6621	-1.4038	-8.4869	39.5563	165.3937	44.8700	44	-221	223	100840	0.40 
230.423	-0.9692	0.0088	1.8877	0.4272	-1.7700	-2.0752	-8.1354	38.5565	164.1083	44.8800	46	-220	224	100840	0.40 
230.595	-0.9697	0.0142	1.8848	0.3052	-1.3428	-1.2817	-7.7728	37.6721	162.9767	44.8800	48	-223	229	100840	0.40 
230.658	-0.9717	0.0098	1.8828	0.3052	-2.5635	-1.0986	-7.3773	36.8317	161.9714	44.8900	47	-222	222	100840	0.40 
230.814	-0.9790	0.0127	1.8882	1.0986	-7.3242	-0.4272	-6.9159	35.8264	161.1090	44.8900	45	-224	223	100840	0.40 
230.892	-0.9668	0.0122	1.8789	2.2583	-8.7891	-3.4790	-6.4435	34.4751	160.2081	44.9100	43	-222	221	100840	0.40 
231.095	-0.9429	0.0205	1.8853	1.8921	-11.1084	-2.1973	-5.9656	33.0634	159.3732	44.8900	42	-219	218	100840	0.40 
231.283	-0.9204	0.0322	1.8828	1.9531	-13.4277	-1.2207	-5.4602	31.4703	158.7634	44.8900	37	-222	217	100841	0.40 
231.283	-0.8926	0.0298	1.8848	2.0142	-15.9302	-0.7935	-4.8834	29.6960	158.3789	44.8900	33	-224	218	100840	0.40 
231.283	-0.8652	0.0425	1.8804	1.8921	-18.1274	0.1831	-4.2957	27.7240	158.1097	44.9100	30	-224	215	100840	0.40 
231.377	-0.8213	0.0381	1.8633	3.0518	-21.7285	-1.1597	-3.6969	25.5597	158.0109	44.9100	22	-223	213	100840	0.40 
231.470	-0.8008	0.0361	1.8623	3.2959	-25.0854	-4.6997	-3.1256	23.2196	157.8406	44.9100	14	-221	210	100840	0.40 
231.517	-0.7729	0.0659	1.8613	4.3945	-28.1982	-4.3335	-2.6202	20.5994	157.5385	44.9200	7	-223	205	100840	0.40 
231.548	-0.7124	0.0674	1.8247	7.4463	-33.7524	-3.2349	-1.8512	17.6056	157.5439	44.9100	0	-228	202	100840	0.40 
231.955	-0.6646	0.0762	1.8262	7.5684	-34.2407	-1.9531	-1.0382	14.4470	157.8461	44.9400	-11	-226	200	100839	0.40 
231.970	-0.6294	0.0845	1.7651	10.1318	-41.4429	6.1035	0.1483	10.9863	158.7085	44.9300	-21	-227	199	100840	0.40 
232.064	-0.5161	0.1016	1.7622	6.6528	-45.2881	-0.3052	1.1206	7.2729	160.0818	44.9300	-37	-229	196	100840	0.40 
232.236	-0.4526	0.1191	1.7007	9.8267	-43.7622	7.0190	1.9995	3.4332	161.4111	44.9500	-57	-232	199	100840	0.40 
232.330	-0.3877	0.1421	1.6440	8.6060	-54.0771	3.4790	2.8290	-0.6592	162.9108	44.9400	-72	-234	197	100839	0.40 
232.503	-0.3145	0.1348	1.5889	10.0708	-53.7720	3.0518	3.6255	-5.1801	164.4104	44.9300	-93	-236	195	100840	0.40 
232.519	-0.2080	0.1387	1.4746	7.9956	-48.9502	7.6294	4.2572	-9.5416	166.4484	44.9300	-109	-239	200	100840	0.40 
232.800	-0.1626	0.1396	1.3926	6.5308	-47.7295	16.6626	4.7076	-13.1671	169.1785	44.9100	-130	-242	207	100840	0.40 
232.816	-0.1030	0.1079	1.2793	4.8828	-38.6963	8.9722	4.6637	-16.4575	172.2986	44.9400	-145	-244	208	100840	0.40 
232.925	-0.0508	0.1743	1.2461	5.4932	-31.7383	14.5874	4.4220	-18.9240	175.2594	44.9300	-160	-240	216	100840	0.40 
233.222	0.1831	0.0747	1.0083	-0.4272	-9.9487	8.1177	4.0320	-21.4343	178.4344	44.9100	-176	-242	222	100840	0.40 
233.238	0.2134	-0.0327	0.9590	-1.2817	-17.5781	-3.6011	3.0432	-22.4396	-177.9401	44.9000	-185	-240	226	100840	0.40 
233.331	0.1733	0.1157	1.0820	3.7842	-22.8882	-18.7378	3.3344	-22.2748	-176.3800	44.8900	-189	-237	232	100840	0.40 
233.410	-0.0093	0.0576	1.1538	6.1035	-2.3804	2.5024	3.3893	-21.4893	-174.5947	44.9000	-195	-243	235	100840	0.40 
233.410	-0.0713	0.0376	1.0747	2.9907	-15.6250	8.7891	3.4937	-20.9070	-172.6062	44.9100	-194	-243	234	100840	0.40 
233.410	-0.0356	0.0762	1.2041	1.5259	-4.2725	-2.7466	3.1750	-19.9896	-170.3595	44.8900	-198	-243	239	100840	0.40 
233.519	-0.0420	0.0103	1.1006	0.9155	-4.0283	-2.9907	2.9059	-19.2755	-168.5358	44.8900	-196	-244	242	100840	0.40 
233.535	-0.0688	0.1133	1.1865	3.1128	10.5591	-16.6626	3.3234	-17.7155	-168.5962	44.8900	-196	-245	239	100840	0.40 
233.581	-0.0386	0.0830	1.1172	4.3335	0.8545	-0.7935	3.6145	-16.2543	-167.4042	44.8900	-192	-247	244	100840	0.40 
233.722	-0.0527	0.1519	1.2153	0.3052	2.4414	3.3569	3.8947	-14.6777	-166.3385	44.8900	-193	-248	243	100840	0.40 
233.785	-0.0522	0.1133	1.1411	-0.9766	0.4883	-0.3052	3.6914	-13.8153	-164.9652	44.8900	-192	-249	243	100840	0.40 
233.956	-0.0381	0.0713	1.1650	-0.1831	3.4790	1.7090	3.4717	-12.6233	-163.6029	44.8800	-191	-248	241	100840	0.40 
234.035	-0.0557	0.0933	1.1890	-0.1831	1.4648	0.6714	3.3398	-11.5411	-162.4713	44.9000	-193	-248	240	100840	0.40 
234.394	-0.0459	0.1011	1.1768	-0.3662	1.2817	1.4648	3.2465	-10.6183	-161.2958	44.8900	-191	-250	239	100840	0.40 
234.394	-0.0479	0.0933	1.1821	-0.4883	1.8921	1.3428	3.1860	-9.7174	-160.3400	44.9000	-189	-250	238	100840	0.40 
234.394	-0.0513	0.0801	1.1875	-0.5493	2.2583	0.4272	3.1091	-8.8715	-159.4666	44.8800	-192	-252	241	100840	0.40 
234.707	-0.0410	0.0825	1.1875	-0.3662	0.4272	1.9531	3.0652	-8.0750	-158.5382	44.9000	-192	-250	238	100840	0.40 
234.722	-0.0503	0.0947	1.1953	-0.3662	1.8921	0.9155	3.0212	-7.3334	-157.7087	44.8900	-191	-246	238	100840	0.40 
234.801	-0.0557	0.0840	1.1958	-0.8545	0.5493	-0.3052	2.9828	-6.6742	-156.9067	44.8700	-187	-246	235	100840	0.40 
235.004	-0.0518	0.0845	1.1919	-0.1831	0.0000	0.2441	2.9553	-6.0919	-156.2201	44.8800	-192	-247	238	100840	0.40 
235.004	-0.0547	0.0874	1.1948	-0.3662	0.5493	0.3662	2.9553	-5.5481	-155.5774	44.8800	-191	-248	238	100840	0.40 
235.097	-0.0552	0.0859	1.1963	-0.1831	0.4272	-0.3052	2.9498	-5.0098	-154.9622	44.8700	-191	-246	238	100839	0.40 
235.207	-0.0542	0.0859	1.1997	-0.2441	0.7324	0.5493	2.9608	-4.4989	-154.3799	44.8800	-190	-246	239	100839	0.40 
235.207	-0.0581	0.0854	1.2021	-0.1831	0.2441	0.9766	2.9608	-4.0485	-153.8251	44.8800	-189	-245	241	100840	0.40 
235.410	-0.0464	0.0752	1.2100	-0.2441	0.3662	-0.6104	2.9608	-3.6694	-153.3307	44.8600	-191	-247	238	100839	0.40 
235.535	-0.0493	0.0786	1.1924	-0.2441	-2.7466	-0.1831	3.0157	-3.4497	-153.0176	44.8700	-190	-245	239	100840	0.40 
235.676	-0.0562	0.0928	1.2080	-0.2441	-1.5259	-0.6714	3.0377	-3.2135	-152.6550	44.8500	-189	-246	238	100840	0.40 
235.676	-0.0635	0.0850	1.1924	-0.4883	-2.2583	-2.1362	3.0762	-3.0652	-152.3419	44.8400	-190	-248	241	100840	0.40 
235.676	-0.0513	0.0889	1.1865	-0.1221	-1.8921	-0.6714	3.1366	-2.9169	-152.1167	44.8600	-189	-248	243	100840	0.40 
235.879	-0.0513	0.0947	1.1885	-0.3052	-2.3193	-1.0986	3.1805	-2.7466	-151.8475	44.8400	-188	-248	241	100841	0.40 
235.972	-0.0293	0.0386	1.1357	2.6245	-4.6997	-5.0049	3.2520	-2.7136	-151.6992	44.8300	-189	-248	241	100841	0.40 
236.176	-0.0498	0.1782	1.1973	-1.0376	-1.4648	-7.8735	3.5815	-2.3676	-152.4957	44.8400	-190	-252	243	100841	0.40 
236.269	-0.1055	0.1396	1.2324	-0.1831	4.0894	8.4839	3.6749	-1.8292	-152.1552	44.8400	-183	-250	240	100841	0.40 
236.394	-0.0015	0.0322	1.1782	-3.4180	-2.9907	10.4980	3.3014	-1.7084	-150.1062	44.8400	-190	-249	237	100840	0.40 
236.410	-0.0303	0.0986	1.1719	-0.9155	-0.4883	2.1973	3.2355	-1.5930	-149.6558	44.8300	-190	-246	240	100840	0.40 
236.488	-0.0508	0.0674	1.1636	-1.0986	-7.3242	-1.3428	3.1091	-1.7194	-149.3097	44.8100	-194	-245	238	100840	0.40 
236.629	-0.1055	0.0762	1.1646	-0.1831	-0.1831	-5.8594	2.9828	-2.1204	-149.4745	44.8300	-198	-245	240	100840	0.40 
236.676	-0.1709	0.0972	1.1611	4.7607	6.3477	-41.3818	3.3344	-1.6589	-150.5676	44.8400	-194	-247	241	100840	0.40 
236.785	-0.0737	-0.0596	1.2427	-3.6011	24.5361	7.3242	3.9551	0.2911	-150.8588	44.8200	-184	-252	242	100840	0.40 
236.863	-0.0322	0.1885	1.1338	-5.3711	31.0669	-27.4658	3.3948	2.4005	-152.4902	44.8200	-177	-254	240	100840	0.40 
236.941	-0.0322	0.3618	1.2251	-1.9531	43.3960	-0.4883	3.3893	6.4380	-154.0558	44.8200	-161	-254	230	100840	0.40 
237.004	-0.2739	0.2412	1.4604	-5.3101	52.2461	-5.1270	3.1586	11.2775	-153.8031	44.8200	-143	-256	227	100840	0.40 
237.019	-0.3477	0.1470	1.4717	-8.4229	43.8232	-0.5493	2.9718	15.6171	-153.7262	44.8200	-130	-254	215	100839	0.40 
237.191	-0.3052	0.1597	1.6050	-8.7280	48.3398	-0.3052	2.2467	20.0775	-153.7262	44.8300	-115	-252	214	100840	0.40 
237.285	-0.3467	0.1113	1.5664	-10.2539	47.1802	-3.1128	1.5381	24.0161	-153.6987	44.8300	-102	-249	210	100839	0.40 
237.509	-0.3701	0.1084	1.5991	-12.0850	46.0205	-6.8970	0.4230	27.6581	-154.6820	44.8100	-88	-244	209	100839	0.40 
237.618	-0.4644	0.0669	1.7378	-10.2539	41.8701	-7.8735	-0.7306	31.3220	-156.3464	44.8200	-69	-241	204	100839	0.40 
237.759	-0.5112	0.1001	1.7349	-11.4136	39.2456	-6.3477	-2.2906	34.1675	-158.5217	44.8300	-55	-237	201	100839	0.40 
237.759	-0.6157	0.1016	1.7964	-9.2773	42.1753	-1.0986	-3.6530	37.2656	-160.8289	44.8200	-39	-237	202	100839	0.40 
237.853	-0.6558	0.0669	1.7930	-6.5308	40.8325	0.1831	-4.5319	40.1056	-162.8723	44.8200	-23	-234	202	100839	0.40 
238.228	-0.7163	0.0347	1.8379	-6.2256	34.1797	-1.2817	-5.5756	42.6160	-165.2728	44.8000	-12	-232	205	100839	0.40 
238.353	-0.7661	0.0415	1.8584	-7.2632	32.8369	-2.9907	-6.8610	44.5276	-168.2556	44.8100	0	-228	208	100839	0.40 
238.368	-0.7817	0.0449	1.8638	-5.0049	37.4756	-1.7090	-8.1299	46.5161	-171.1395	44.8200	14	-228	211	100839	0.40 
238.509	-0.9307	0.0063	1.8657	-2.1362	28.3813	1.5259	-8.6847	48.4387	-173.8751	44.8200	25	-227	217	100839	0.40 
238.524	-1.0073	0.0327	1.8496	-2.7466	23.3765	0.4883	-9.4427	49.5374	-176.8964	44.8100	34	-227	224	100839	0.40 
238.524	-1.0308	0.0303	1.8906	-2.7466	18.1274	0.7324	-9.9591	50.3943	-179.5221	44.7900	42	-225	227	100839	0.40 
238.603	-1.0435	0.0151	1.8994	-1.1597	13.4888	0.0000	-10.2887	50.5975	178.0334	44.8000	51	-225	231	100839	0.40 
238.774	-1.0640	0.0269	1.8867	-1.6479	3.6011	3.5400	-10.0250	50.0702	176.2262	44.8000	54	-226	230	100839	0.40 
238.774	-1.0527	0.0142	1.8735	-2.0142	0.3052	0.1831	-9.8053	48.9935	174.4958	44.8000	54	-228	230	100839	0.40 
238.853	-1.0371	0.0293	1.8877	-0.9155	-1.8311	-0.4883	-9.7174	47.6752	172.6611	44.8000	56	-225	230	100839	0.40 
239.009	-1.0254	0.0083	1.8804	-3.2349	-3.9063	0.1221	-9.5636	46.1755	171.0297	44.8100	53	-225	231	100839	0.40 
239.056	-1.0278	0.0059	1.8813	-0.5493	-2.2583	1.0376	-9.3658	44.7858	169.5190	44.7800	53	-226	227	100839	0.40 
239.524	-0.9819	-0.0361	1.8306	0.6714	-2.6855	2.5024	-8.5803	43.4894	168.3600	44.8100	52	-225	227	100839	0.40 
239.524	-1.0039	0.0176	1.8726	-2.0142	-0.7935	-0.8545	-8.2507	42.5116	167.0911	44.8100	52	-225	228	100839	0.40 
239.853	-1.0166	0.0225	1.8677	0.5493	-0.8545	1.0986	-7.8387	41.5558	165.9375	44.8000	49	-226	231	100839	0.40 
239.853	-1.0181	0.0166	1.8804	0.4272	-1.6479	0.8545	-7.3499	40.6549	164.8499	44.8100	47	-225	228	100839	0.40 
239.853	-1.0063	0.0176	1.8813	0.3052	-1.7090	1.0376	-6.8774	39.7375	163.8776	44.8200	49	-225	228	100839	0.41 
239.853	-1.0122	0.0200	1.8784	0.0610	-1.9531	0.3052	-6.4655	38.8477	162.9437	44.8300	51	-229	230	100839	0.41 
239.853	-1.0200	0.0215	1.8867	0.4883	-5.1880	2.4414	-6.0040	37.9248	162.0978	44.8400	48	-228	227	100839	0.41 
240.118	-0.9912	0.0234	1.8887	0.5493	-3.7231	0.4272	-5.5042	36.8976	161.4221	44.8400	48	-223	231	100838	0.41 
240.243	-0.9834	0.0239	1.8867	1.2207	-3.1738	0.2441	-5.0482	36.0571	160.6531	44.8400	48	-225	224	100838	0.41 
240.446	-0.9927	0.0293	1.8838	0.6714	-1.7090	0.6104	-4.6472	35.2826	159.9664	44.8300	46	-230	227	100839	0.41 
240.541	-0.9858	0.0259	1.8887	0.6104	-2.6855	-0.0610	-4.2627	34.5465	159.3677	44.8500	44	-227	226	100839	0.41 
240.557	-0.9819	0.0293	1.8833	0.1831	-4.5166	-1.6479	-4.0100	33.7445	158.6371	44.8400	44	-228	226	100839	0.41 
240.557	-0.9849	0.0259	1.8911	0.2441	-7.6904	-1.8311	-3.8068	32.7722	157.9120	44.8300	43	-227	227	100839	0.41 
240.557	-0.9727	0.0303	1.8867	0.7935	-10.9863	-0.9766	-3.5431	31.5088	157.3132	44.8300	38	-224	227	100839	0.40 
240.745	-0.9639	0.0356	1.8970	1.0376	-15.7471	-0.6104	-3.2520	29.9817	156.8683	44.8500	36	-230	222	100839	0.40 
240.854	-0.9014	0.0234	1.8789	1.0986	-20.4468	-1.2817	-2.9004	27.9218	156.6046	44.8400	33	-230	219	100839	0.40 
240.901	-0.8833	0.0361	1.8882	0.6104	-27.4658	-0.3662	-2.5543	25.5762	156.3464	44.8500	25	-226	218	100839	0.40 
241.010	-0.8354	0.0371	1.8555	2.2583	-34.9121	-1.3428	-2.2302	22.4341	156.2970	44.8500	15	-227	211	100839	0.41 
241.073	-0.7808	0.0391	1.8472	5.4321	-36.8042	-1.7090	-1.5985	19.0393	156.4618	44.8500	6	-227	209	100839	0.41 
241.260	-0.6831	0.0825	1.8242	5.4932	-44.7388	2.3804	-0.8569	15.2216	156.8079	44.8600	-7	-229	205	100839	0.41 
241.573	-0.6108	0.0884	1.7939	5.9204	-46.9360	5.1270	-0.0659	11.0522	157.8076	44.8600	-24	-228	203	100839	0.41 
241.666	-0.5366	0.0825	1.7446	4.9438	-52.6733	4.4556	0.5548	6.4709	159.0820	44.8600	-39	-233	201	100838	0.41 
241.666	-0.4561	0.0718	1.6904	6.4087	-56.8848	-3.0518	0.9833	1.7908	160.1971	44.8500	-57	-235	195	100838	0.41 
241.666	-0.3896	0.1504	1.6294	8.0566	-56.9458	0.0610	1.6260	-2.8015	160.9113	44.8600	-76	-234	197	100838	0.41 
241.760	-0.2866	0.0552	1.5479	8.3618	-61.3403	11.2305	2.2577	-7.6575	163.0646	44.8500	-96	-235	198	100837	0.41 
241.807	-0.2163	0.0449	1.5029	12.8174	-50.2930	2.8687	2.9443	-11.9202	165.1794	44.8600	-114	-238	203	100837	0.41 
241.916	-0.1436	0.1147	1.3374	9.5215	-49.5605	-2.3804	3.9111	-15.8038	166.7670	44.8600	-132	-240	205	100837	0.41 
241.963	-0.1729	0.1279	1.3657	9.8877	-40.7104	0.9155	4.6582	-18.4735	168.5742	44.8500	-146	-242	214	100838	0.41 
242.291	-0.0313	0.1553	1.1655	6.1035	-46.6919	0.4883	4.9384	-21.1102	170.8923	44.8600	-158	-247	220	100838	0.41 
242.291	0.0239	0.2124	1.2046	5.1270	-45.8984	2.9297	5.0647	-22.7362	173.3807	44.8600	-167	-246	229	100838	0.41 
242.495	-0.0850	0.2114	1.3403	4.5776	-14.5874	5.5542	5.3119	-22.4506	175.4407	44.8500	-177	-252	234	100838	0.41 
242.573	-0.0786	0.1138	1.3140	0.3662	-29.5410	24.3530	4.7900	-21.7090	178.6487	44.8400	-179	-251	234	100838	0.41 
242.729	-0.1226	0.0522	1.1772	-1.6479	-7.3242	16.4795	4.0210	-21.6541	-178.1543	44.8600	-187	-252	236	100838	0.41 
242.838	-0.0830	0.0610	1.1748	-0.8545	-0.8545	6.3477	3.3673	-20.7147	-175.4132	44.8500	-191	-245	236	100838	0.41 
242.838	-0.0342	0.1099	1.1792	0.3662	0.7324	-2.9907	2.9828	-19.4293	-173.2269	44.8400	-195	-245	237	100838	0.41 
242.838	-0.0884	0.0884	1.2144	3.1128	10.0098	-10.2539	3.0157	-17.8308	-172.0569	44.8500	-188	-244	238	100838	0.41 
242.979	-0.0601	0.1289	1.1748	1.2817	-5.0049	-0.3052	3.2410	-16.5070	-170.7935	44.8500	-188	-246	241	100838	0.41 
243.166	-0.0493	0.1265	1.1934	1.8921	-1.4648	0.6104	3.3948	-15.5731	-169.5190	44.8400	-187	-248	244	100838	0.41 
243.245	-0.0498	0.0962	1.1592	0.4272	-2.7466	-1.5869	3.3893	-14.7931	-168.1512	44.8500	-189	-250	243	100837	0.41 
243.370	-0.0400	0.1182	1.1797	0.3662	-1.1597	-0.7935	3.4003	-13.8538	-167.0526	44.8500	-188	-248	242	100838	0.41 
243.432	-0.0493	0.1128	1.1772	0.3052	-1.6479	-1.0376	3.4277	-13.0902	-166.0474	44.8200	-189	-250	242	100837	0.41 
243.510	-0.0391	0.1230	1.1851	-0.1221	0.2441	-1.6479	3.4442	-12.2882	-165.0861	44.8400	-186	-249	239	100837	0.41 
243.651	-0.0537	0.1172	1.1567	0.0000	-2.7466	-1.2817	3.4937	-11.6125	-164.2181	44.8300	-184	-247	244	100837	0.41 
243.729	-0.0513	0.1211	1.1816	-0.0610	-1.2207	-1.0376	3.5266	-10.8435	-163.3008	44.8100	-188	-251	243	100837	0.41 
243.729	-0.0557	0.1191	1.1665	0.0000	-1.3428	-1.3428	3.5651	-10.1953	-162.4768	44.8200	-189	-254	241	100837	0.41 
243.838	-0.0488	0.1235	1.1597	-0.0610	-1.7090	-0.4883	3.6255	-9.6021	-161.6913	44.8000	-187	-254	240	100837	0.41 
243.901	-0.0503	0.1235	1.1567	0.0610	-1.7700	-1.3428	3.6969	-9.0308	-160.9497	44.7900	-185	-252	238	100837	0.41 
244.120	-0.0532	0.1353	1.1548	0.0000	-0.6714	-0.6714	3.7848	-8.4430	-160.3235	44.8000	-190	-254	244	100837	0.41 
244.120	-0.0513	0.1201	1.1733	0.0000	0.0610	-2.5635	3.8397	-7.7234	-159.6313	44.8000	-188	-252	237	100837	0.41 
244.526	-0.0195	0.1729	1.1406	-0.9766	-1.5259	-9.8877	3.9166	-7.3169	-159.9170	44.7700	-184	-253	242	100837	0.41 
244.542	-0.0107	0.1069	1.1372	-1.5869	-4.2114	4.6997	3.9661	-6.8610	-159.0601	44.7900	-189	-255	239	100837	0.41 
244.620	-0.0811	0.1753	1.1265	-1.1597	-6.9580	5.4932	4.1693	-6.5643	-158.2416	44.7900	-185	-250	243	100837	0.41 
244.636	-0.1187	0.0884	1.1357	-0.9155	0.8545	7.3242	3.9716	-6.3556	-157.5165	44.7600	-185	-251	245	100837	0.41 
244.730	0.2803	0.1216	1.0361	-4.1504	5.7983	-17.2119	3.9496	-5.5811	-157.4670	44.7800	-186	-250	242	100837	0.41 
244.980	-0.0542	0.2627	1.1572	-6.7139	37.1704	-11.3525	3.9551	-2.3291	-158.6481	44.7700	-175	-256	238	100837	0.41 
245.042	-0.0195	0.2212	1.1685	-8.5449	53.7109	-1.4038	3.5101	2.1259	-158.0493	44.7600	-165	-252	231	100837	0.41 
245.339	-0.0942	0.1035	1.3599	-8.9111	53.3447	8.4229	2.9828	7.4158	-157.0111	44.7700	-152	-251	224	100837	0.41 
245.448	-0.1084	0.1982	1.5137	-9.5825	55.4810	1.9531	2.2137	12.4420	-156.8683	44.7600	-138	-248	216	100836	0.41 
245.730	-0.1973	0.1353	1.5786	-7.1411	57.3730	5.8594	1.8896	17.0013	-156.2860	44.7600	-121	-243	209	100836	0.41 
245.839	-0.3140	0.1279	1.6621	-1.8311	59.8755	4.6997	1.9116	21.9177	-156.0114	44.7700	-104	-243	203	100836	0.41 
245.933	-0.3652	0.0806	1.6187	-6.5918	51.2695	-6.2866	1.6040	26.4111	-156.5936	44.7400	-88	-245	207	100836	0.41 
245.933	-0.4409	0.1636	1.6709	-5.9814	48.7061	-9.2773	0.5438	30.3937	-158.6481	44.7800	-72	-245	207	100837	0.41 
245.933	-0.5356	0.1294	1.7480	-8.3618	49.5605	-9.0332	-0.6097	34.2499	-160.8838	44.7700	-52	-243	206	100837	0.41 
245.933	-0.6172	0.1045	1.7935	-12.4512	55.7861	-4.9438	-2.2742	38.2434	-163.3612	44.7500	-30	-237	206	100837	0.41 
245.933	-0.6992	0.1206	1.8286	-12.0239	53.4058	2.1973	-3.7903	42.3248	-165.5420	44.7600	-14	-236	209	100837	0.41 
245.995	-0.8174	0.0464	1.8145	-9.7046	44.7998	-5.4932	-5.3448	45.5658	-168.0688	44.7600	6	-230	212	100837	0.41 
246.089	-0.9399	0.0117	1.8774	-13.8550	41.9312	-4.9438	-7.5476	48.6035	-171.5570	44.7600	18	-228	214	100837	0.41 
246.136	-1.0078	0.0522	1.9009	-12.1460	38.0249	-4.0283	-10.4315	51.1414	-176.1877	44.7500	34	-224	220	100837	0.41 
246.167	-1.1255	0.0024	1.9536	-7.6904	26.7334	-7.5684	-12.9254	53.0200	179.2804	44.7700	49	-221	224	100837	0.41 
246.292	-1.0845	0.0049	1.9033	-6.1035	10.5591	1.9531	-14.0076	53.3002	176.2097	44.7500	60	-218	228	100837	0.41 
246.386	-1.0850	-0.0098	1.9272	-2.0752	2.6855	5.1270	-13.5516	52.4048	174.6222	44.7500	60	-217	230	100836	0.41 
246.620	-1.0620	-0.0352	1.8799	0.8545	0.0000	4.3945	-12.8485	51.0590	173.1226	44.7600	60	-219	232	100836	0.41 
246.620	-1.0654	-0.0107	1.8828	2.4414	-4.0894	1.4648	-12.1564	49.5593	171.4471	44.7600	59	-222	230	100837	0.41 
246.792	-1.0439	-0.0049	1.8662	2.3804	-3.5400	0.6714	-11.3049	47.9443	170.0739	44.7600	59	-219	230	100836	0.41 
246.932	-1.0332	0.0098	1.8774	1.2817	-2.0752	-0.0610	-10.6458	46.5161	168.6292	44.7700	58	-221	229	100837	0.41 
247.010	-1.0381	0.0098	1.8853	0.6104	-0.3052	-0.9155	-10.1349	45.3076	167.1570	44.7600	56	-221	231	100837	0.41 
247.120	-1.0488	0.0063	1.8784	0.0000	-1.0986	-0.5493	-9.7449	44.1870	165.6793	44.7800	61	-224	229	100837	0.41 
247.182	-1.0376	0.0044	1.8667	-0.1831	-0.8545	-0.7324	-9.3933	43.0939	164.2786	44.7700	60	-223	227	100837	0.41 
247.385	-1.0483	-0.0020	1.8628	0.9766	-2.5024	-0.9155	-9.0143	42.0667	162.9877	44.8000	59	-222	232	100837	0.41 
247.385	-1.0430	0.0039	1.8970	2.2583	-0.7324	0.5493	-8.4430	41.1768	161.8890	44.7900	55	-224	232	100837	0.41 
247.792	-1.0254	0.0122	1.8755	1.7090	-2.9907	-0.0610	-7.7673	40.1331	161.0651	44.7900	56	-221	229	100836	0.41 
247.807	-1.0205	0.0181	1.8608	1.0986	-1.6479	-0.6104	-7.2400	39.1663	160.0873	44.7900	56	-222	230	100836	0.41 
247.807	-1.0278	0.0156	1.8794	0.4883	-1.5259	-0.3662	-6.8445	38.3972	159.1205	44.8100	56	-222	231	100837	0.41 
248.042	-1.0195	0.0200	1.8735	0.1221	-0.0610	0.2441	-6.4545	37.7271	158.2690	44.8200	57	-223	230	100837	0.41 
248.135	-1.0273	0.0195	1.8740	-0.3662	-0.4883	0.4883	-6.0699	37.1393	157.5769	44.8100	55	-223	228	100837	0.41 
248.135	-1.0298	0.0156	1.8770	0.1831	-1.5869	0.8545	-5.6525	36.5405	156.9342	44.8500	55	-223	229	100837	0.41 
248.245	-1.0327	0.0156	1.8813	-0.4883	-0.1221	0.7935	-5.3613	35.9637	156.2695	44.8100	54	-223	228	100837	0.41 
248.307	-1.0278	0.0142	1.8760	-0.4272	-1.0986	0.6104	-4.9658	35.3760	155.8136	44.8300	53	-224	231	100837	0.41 
248.527	-1.0166	0.0181	1.8911	-0.4883	-1.7700	1.6479	-4.6472	34.8651	155.3247	44.8300	52	-222	226	100837	0.41 
248.543	-1.0215	0.0156	1.8765	0.0000	0.1221	0.0610	-4.3561	34.4037	154.8248	44.8400	52	-225	226	100837	0.41 
248.605	-1.0342	0.0186	1.8818	0.5493	-1.4648	2.1973	-4.0320	34.0137	154.3579	44.8300	55	-224	230	100837	0.41 
248.762	-1.0024	0.0122	1.8843	1.0986	-0.4272	-0.3052	-3.5815	33.5797	154.0228	44.8300	54	-225	229	100837	0.41 
249.043	-1.0166	0.0234	1.8779	-0.5493	-0.0610	0.4272	-3.2739	33.2007	153.6383	44.8400	54	-225	228	100837	0.41 
249.168	-1.0347	0.0303	1.8887	-0.1221	-0.1831	0.9766	-3.0872	32.9535	153.1824	44.8300	51	-222	231	100837	0.41 
249.277	-1.0166	0.0283	1.8906	-1.1597	-0.7935	0.2441	-2.9169	32.6019	152.7814	44.8500	52	-225	229	100837	0.41 
249.277	-1.0161	0.0205	1.8813	-0.6714	-0.7324	-0.5493	-2.8015	32.3053	152.3199	44.8500	58	-227	230	100838	0.41 
249.340	-1.0225	0.0215	1.8877	-0.8545	0.2441	-0.2441	-2.7026	32.0087	151.8915	44.8400	51	-226	227	100837	0.41 
249.418	-1.0156	0.0171	1.8760	-0.7324	-0.7324	-0.3662	-2.6202	31.7285	151.5564	44.8500	50	-224	228	100837	0.41 
249.574	-1.0200	0.0137	1.8833	-0.7324	-0.4883	-0.9155	-2.5598	31.4923	151.1664	44.8700	51	-225	228	100837	0.41 
249.574	-1.0171	0.0151	1.8779	-0.6104	-0.6104	-0.5493	-2.4939	31.2506	150.8148	44.8600	49	-224	227	100837	0.41 
249.621	-1.0176	0.0171	1.8779	-0.6104	-0.9766	-0.1221	-2.4005	31.0144	150.4907	44.8500	51	-223	228	100837	0.41 
249.777	-1.0220	0.0176	1.8857	-0.3662	-1.5869	0.7324	-2.2906	30.8057	150.1831	44.8600	53	-222	228	100837	0.41 
249.777	-1.0132	0.0181	1.8833	-0.9766	-0.6714	-0.4883	-2.1918	30.5695	149.9359	44.8800	51	-225	230	100837	0.41 
250.027	-1.0117	0.0107	1.8770	-0.3052	-1.0376	-0.3662	-2.1149	30.3937	149.6338	44.8700	54	-223	229	100837	0.41 
250.043	-1.0151	0.0161	1.8867	-0.5493	0.0000	-0.7324	-2.0764	30.2234	149.3042	44.8900	54	-223	226	100837	0.41