5
StartTime: 2017-07-11 15:23:39.304
Time(s)	ax(g)	ay(g)	az(g)	wx(deg/s)	wy(deg/s)	wz(deg/s)	AngleX(deg)	AngleY(deg)	AngleZ(deg)	T(°)	hx	hy	hz	Pressure(Pa)	Altitude(m) 
146.248	-0.9946	-0.0098	1.8799	0.0000	-1.5869	-0.1221	-0.4944	27.0923	149.7162	44.6000	32	-232	221	100850	0.40 
146.498	-1.0015	-0.0083	1.8867	-0.0610	0.0000	0.3052	-0.5054	27.0978	149.7491	44.6000	33	-231	221	100850	0.40 
146.545	-0.9976	-0.0098	1.8809	-0.5493	-0.2441	0.3662	-0.5109	27.0868	149.8151	44.6100	32	-232	224	100850	0.40 
146.576	-0.9966	-0.0107	1.8833	-0.6104	-0.0610	-0.2441	-0.5603	27.1033	149.8425	44.6100	33	-234	222	100850	0.40 
146.576	-0.9980	-0.0122	1.8813	-0.6104	0.4883	-0.6104	-0.6152	27.1582	149.7931	44.6000	34	-233	224	100850	0.40 
146.779	-1.0039	-0.0112	1.8799	-0.6104	0.6714	-0.2441	-0.6812	27.2571	149.7546	44.6000	32	-235	222	100850	0.40 
146.826	-1.0098	-0.0093	1.8975	0.0000	0.3052	0.1221	-0.7031	27.3669	149.7382	44.6100	33	-231	219	100850	0.40 
146.967	-0.9912	-0.0127	1.8901	-0.9155	0.7935	-0.1831	-0.7251	27.3669	149.7711	44.6200	31	-230	222	100850	0.40 
146.998	-1.0020	-0.0142	1.8911	-0.5493	-1.2207	-0.6104	-0.7910	27.3944	149.7052	44.6000	34	-230	223	100850	0.40 
147.140	-0.9951	-0.0142	1.8809	-0.8545	-0.3662	-0.9155	-0.8734	27.3340	149.6613	44.6100	29	-232	217	100850	0.40 
147.454	-1.0063	-0.0151	1.8906	-0.6714	-3.4790	-0.6714	-0.9283	27.1472	149.6832	44.6100	31	-227	216	100850	0.40 
147.534	-0.9585	-0.0034	1.9360	-1.1597	-1.4648	1.4038	-0.9119	26.8231	149.7656	44.6000	30	-232	220	100850	0.40 
147.534	-1.0439	-0.0415	1.9004	-1.7700	-10.3760	-5.2490	-1.1646	26.4001	149.8260	44.6100	30	-227	220	100849	0.40 
147.550	-1.0767	-0.0186	1.9165	-0.0610	-40.9546	-5.6152	-1.4447	24.0546	149.2218	44.6100	24	-227	215	100849	0.40 
147.756	-0.9243	-0.0210	1.9180	1.6479	-63.4155	-1.4648	-1.4557	19.0887	149.0845	44.6100	16	-226	206	100849	0.40 
147.888	-0.8052	-0.0249	1.8472	3.2959	-83.0688	-4.4556	-1.2524	12.1069	149.5679	44.6300	-8	-224	199	100849	0.40 
148.057	-0.6997	0.0225	1.7134	5.0049	-73.0591	5.5542	-0.7031	4.8615	150.5511	44.6100	-38	-228	193	100849	0.40 
148.258	-0.5327	0.0146	1.7197	1.4038	-80.1392	5.4932	-0.5988	-2.0654	153.2373	44.6200	-66	-227	192	100849	0.40 
148.320	-0.3545	-0.0044	1.5576	-1.8311	-84.9609	1.5259	-1.0052	-9.1296	156.0278	44.6300	-94	-226	191	100849	0.40 
148.436	-0.1982	0.0400	1.4722	6.8359	-68.4204	5.1270	-1.4722	-15.7214	158.9117	44.6200	-125	-226	191	100849	0.40 
148.590	-0.0923	0.0215	1.2910	-0.2441	-59.3262	1.9531	-1.7578	-20.8081	161.9495	44.6200	-150	-230	200	100849	0.40 
148.706	-0.1172	-0.0391	1.2910	-0.3662	-35.1563	0.0000	-2.4884	-23.9612	165.3607	44.6200	-167	-226	202	100849	0.40 
148.706	-0.1216	-0.0054	1.4219	-2.8687	-28.1982	-3.2959	-3.1860	-24.7961	168.4369	44.6100	-180	-231	208	100849	0.40 
148.706	-0.0908	-0.0015	1.3271	1.8311	-30.6396	5.9814	-3.6749	-25.6476	171.7493	44.6000	-189	-231	210	100850	0.40 
148.706	-0.3647	0.0142	1.4404	2.1973	3.5400	-5.2490	-3.8562	-25.6311	174.9518	44.5900	-193	-230	214	100849	0.40 
148.937	-0.0938	-0.0254	1.1460	2.9907	-7.7515	-7.0190	-4.1034	-27.1967	177.4237	44.6100	-200	-232	222	100849	0.40 
149.175	0.0786	-0.0254	1.0781	3.6011	-6.2256	-0.1221	-3.9056	-26.2738	179.3353	44.5800	-203	-232	224	100849	0.40 
149.237	-0.1211	0.0781	1.3208	1.8311	13.3057	-8.9111	-3.6035	-23.8678	-178.9014	44.5900	-203	-235	221	100849	0.40 
149.391	-0.0313	-0.0156	1.1875	1.2207	0.7324	-3.6011	-3.6310	-22.3627	-176.6931	44.5900	-199	-233	222	100849	0.40 
149.491	-0.0508	0.0020	1.1792	-1.3428	-6.7139	-2.8687	-3.6035	-21.2421	-175.0726	44.5900	-198	-234	226	100849	0.40 
149.723	-0.0571	0.0630	1.1909	-0.9766	-2.8076	-1.8921	-3.6804	-20.1819	-173.4851	44.5900	-201	-234	225	100850	0.40 
149.823	-0.0439	0.0488	1.1987	0.3662	1.2817	-0.5493	-3.6200	-18.9240	-171.8207	44.5900	-199	-238	226	100850	0.40 
149.823	-0.0410	0.0171	1.1860	0.1831	-1.7090	-2.5024	-3.5815	-17.7594	-170.1013	44.5900	-198	-238	229	100849	0.40 
149.892	-0.0469	0.0562	1.1909	0.3662	-0.6104	-0.9155	-3.4662	-16.6772	-168.6896	44.5800	-197	-238	227	100850	0.40 
150.008	-0.0591	0.0503	1.2007	-0.2441	0.3052	-0.4272	-3.3344	-15.5402	-167.2778	44.5800	-198	-236	226	100850	0.40 
150.008	-0.0537	0.0405	1.1851	-0.1831	-1.1597	-0.5493	-3.2410	-14.5459	-165.8826	44.5800	-199	-238	228	100850	0.40 
150.062	-0.0469	0.0488	1.1919	-0.1221	-0.7324	-0.5493	-3.1311	-13.5736	-164.5752	44.5700	-198	-239	229	100850	0.40 
150.062	-0.0527	0.0493	1.1943	-0.4883	-1.4648	0.1221	-2.9938	-12.6947	-163.3997	44.5800	-194	-241	230	100850	0.40 
150.177	-0.0498	0.0518	1.2026	0.4883	-0.9766	-0.4883	-2.8674	-11.8488	-162.2296	44.5900	-200	-238	231	100850	0.40 
150.260	-0.0479	0.0435	1.1938	-0.0610	-0.5493	1.5259	-2.6697	-11.1017	-161.0815	44.6000	-198	-238	229	100850	0.40 
150.277	-0.0503	0.0645	1.2075	-0.1221	-2.5635	0.3052	-2.5323	-10.3766	-159.9609	44.5700	-198	-238	229	100849	0.40 
150.494	-0.1592	0.0942	1.1299	1.9531	-0.0610	1.5259	-2.1863	-9.7998	-158.7634	44.5900	-201	-238	233	100849	0.40 
150.510	-0.2397	0.0288	1.1758	-1.7090	15.6250	-0.6714	-2.1698	-8.2562	-157.3242	44.5800	-198	-239	230	100849	0.40 
150.731	0.2578	-0.1104	0.8066	-1.4038	20.0195	12.1460	-2.1588	-8.9264	-155.2368	44.5900	-199	-232	229	100849	0.40 
150.838	-0.0308	0.0229	1.1411	3.7231	50.7202	-19.2871	-2.2412	-3.8123	-155.0446	44.5800	-196	-236	222	100849	0.40 
151.034	-0.1475	0.1621	1.4390	1.6479	81.9702	-18.0664	-1.6809	3.0652	-156.7145	44.6000	-174	-238	216	100849	0.40 
151.196	-0.2690	0.1016	1.4063	-0.7324	62.1948	20.9351	-1.0547	9.9811	-156.4563	44.5900	-151	-240	209	100849	0.40 
151.212	-0.4282	0.0825	1.5737	5.3101	60.4248	2.7466	-0.7635	16.7871	-155.4895	44.5800	-130	-240	202	100849	0.40 
151.265	-0.4263	-0.0952	1.5811	6.4697	67.9932	13.2446	0.2252	23.1812	-155.1379	44.5900	-106	-237	202	100849	0.40 
151.402	-0.4756	0.0991	1.7012	-0.8545	75.8057	-11.2305	-0.0879	30.0037	-156.6815	44.5800	-85	-240	198	100849	0.40 
151.463	-0.6284	0.0430	1.7471	-2.1973	63.5986	-8.4229	-0.7086	36.2878	-158.8898	44.5900	-60	-243	204	100850	0.40 
151.490	-0.7710	0.1040	1.8135	-4.5166	64.6973	-11.7188	-1.9061	41.5833	-161.4935	44.5900	-35	-240	208	100850	0.40 
151.606	-0.9092	0.0576	1.8911	-6.8970	55.6030	-11.5967	-3.7573	46.4008	-165.0201	44.5800	-9	-241	210	100850	0.40 
151.674	-1.0420	0.0254	1.9121	-5.6763	46.9360	-5.5542	-5.7404	50.2570	-169.1345	44.5700	10	-239	215	100850	0.40 
151.807	-1.0610	0.0591	1.8560	-7.0190	26.6724	2.6245	-7.4927	52.3114	-172.8809	44.5900	24	-238	223	100850	0.40 
151.854	-1.0845	0.0098	1.9336	-4.5776	10.7422	6.5308	-7.7399	52.8333	-174.7211	44.5900	33	-234	227	100850	0.40 
152.023	-1.0322	0.0059	1.8950	-1.7700	1.5259	3.1128	-7.6300	52.0258	-176.4185	44.5800	35	-235	226	100850	0.40 
152.092	-1.0059	0.0176	1.8721	-0.1831	-5.9814	0.6714	-7.4542	50.3009	-178.2202	44.5800	34	-237	228	100850	0.40 
152.223	-1.0020	0.0020	1.8892	-1.4038	-7.1411	0.8545	-7.1741	48.3673	-179.8242	44.5800	34	-233	227	100850	0.40 
152.290	-0.9849	0.0073	1.8770	-1.6479	-7.1411	-0.5493	-7.1960	46.4996	178.4070	44.5900	30	-234	224	100850	0.40 
152.427	-0.9785	-0.0054	1.8760	-1.7700	-5.1270	-0.9766	-7.1631	44.8022	176.7480	44.5900	30	-233	221	100850	0.40 
152.628	-0.9805	-0.0083	1.8887	-2.4414	-6.2866	-0.2441	-7.1631	43.2861	175.1770	44.5700	30	-232	219	100850	0.40 
152.706	-0.9775	0.0127	1.8613	-0.9766	-6.6528	-0.7324	-7.1136	41.6272	173.7213	44.5700	24	-232	219	100850	0.40 
152.706	-0.9443	0.0010	1.8867	-0.1221	-3.5400	0.0000	-6.8280	40.2100	172.7930	44.5900	22	-234	217	100850	0.40 
152.875	-0.9746	-0.0273	1.9146	-2.1973	-10.1929	0.9766	-6.5314	38.7708	171.8317	44.5800	19	-234	220	100850	0.40 
152.906	-0.9692	-0.0122	1.8867	-2.1362	-17.6392	-4.0894	-6.5094	36.5515	170.6946	44.5900	16	-233	213	100850	0.40 
153.075	-0.9399	-0.0181	1.8994	0.0000	-28.1372	-4.6997	-6.4160	33.7610	169.5630	44.6000	12	-233	212	100850	0.40 
153.232	-0.9248	-0.0459	1.8765	-3.7231	-47.8516	-13.0615	-6.5918	29.6521	168.3105	44.6000	2	-230	210	100850	0.40 
153.296	-0.8320	0.0171	1.9233	-1.0376	-65.8569	-18.0664	-7.3334	23.7085	166.5692	44.6100	-10	-231	196	100850	0.40 
153.427	-0.6411	-0.0220	1.6865	6.7749	-93.8110	-7.9346	-6.4490	15.5676	166.4758	44.6200	-29	-228	191	100851	0.40 
153.496	-0.5029	0.0229	1.7554	4.0283	-78.5522	-7.7515	-5.7074	8.5254	167.5635	44.6100	-57	-226	190	100851	0.40 
153.527	-0.4082	-0.0229	1.7061	7.2632	-78.3691	9.2773	-4.7076	1.2415	169.2938	44.6400	-85	-227	187	100851	0.40 
153.696	-0.1724	0.0313	1.4531	7.7515	-75.9888	1.0986	-4.1528	-5.9381	171.5625	44.6100	-111	-223	191	100851	0.39 
153.782	-0.0811	0.0591	1.3433	5.1880	-64.3311	-3.1128	-3.4167	-11.6675	173.7323	44.6300	-136	-225	199	100851	0.40 
153.923	-0.1201	0.0215	1.2085	7.8125	-44.6777	3.0518	-2.8070	-16.2817	176.2317	44.6100	-159	-235	200	100851	0.39 
154.096	-0.1929	0.0239	1.3730	2.5024	-22.3999	-0.2441	-2.3785	-18.3087	178.4509	44.6100	-172	-239	214	100852	0.39 
154.112	-0.1685	0.1509	1.3657	0.8545	-20.7520	14.4653	-1.9226	-19.5447	-179.0662	44.6200	-183	-236	217	100852	0.39 
154.159	-0.2671	0.0054	1.2471	-7.3242	-9.7656	6.2256	-2.7136	-20.7312	-175.4901	44.6200	-192	-233	221	100851	0.39 
154.346	-0.1313	0.0869	1.2241	1.7090	-3.7231	-2.4414	-2.5873	-21.1926	-173.7598	44.6100	-200	-233	223	100851	0.39 
154.471	-0.0439	0.0264	1.1655	2.5024	35.2173	-14.2822	-2.2577	-20.0116	-172.4304	44.6100	-200	-233	224	100851	0.39 
154.471	-0.0220	0.0239	1.1177	-0.1221	-11.2305	5.9814	-1.8951	-17.7539	-171.2439	44.6100	-195	-238	226	100851	0.40 
154.643	-0.1118	0.1167	1.2944	1.4648	-1.4038	-5.6763	-1.7194	-16.4355	-169.9860	44.6100	-194	-239	227	100851	0.40 
154.706	-0.0283	0.0444	1.1167	-0.7935	1.1597	0.6714	-1.6919	-15.8423	-168.3380	44.6000	-199	-240	226	100851	0.40 
154.737	-0.0356	0.0664	1.2031	-0.3662	0.0610	1.5259	-1.6315	-14.4965	-166.9373	44.6000	-195	-240	226	100851	0.40 
154.909	-0.0571	0.0557	1.2275	-0.7324	3.1738	2.1362	-1.6809	-13.2605	-165.4431	44.5900	-193	-239	227	100851	0.40 
155.050	-0.0591	0.0410	1.2148	-0.6714	-0.2441	0.6104	-1.6644	-12.2223	-164.1028	44.6100	-192	-242	226	100850	0.40 
155.112	-0.0479	0.0566	1.1987	-0.0610	-0.6714	-0.1831	-1.6095	-11.3599	-162.8888	44.6100	-191	-240	227	100850	0.40 
155.253	-0.0596	0.0522	1.2090	-0.1221	1.3428	1.1597	-1.5161	-10.4755	-161.7462	44.6000	-192	-237	226	100850	0.40 
155.284	-0.0596	0.0571	1.2251	0.0000	1.4038	-0.1221	-1.3953	-9.5361	-160.6860	44.6000	-194	-239	223	100850	0.40 
155.456	-0.0503	0.0459	1.2065	-0.5493	-0.3052	0.7324	-1.3129	-8.7781	-159.6588	44.6100	-194	-238	225	100850	0.40 
155.471	-0.0620	0.0562	1.2324	-0.1831	0.4883	1.2207	-1.2415	-7.9816	-158.6371	44.6100	-192	-237	223	100850	0.40 
155.690	-0.0596	0.0581	1.2134	-0.3052	1.0376	0.4883	-1.1426	-7.3608	-157.7197	44.6100	-194	-242	223	100850	0.40 
155.893	-0.0654	0.0605	1.2134	0.4272	1.3428	-2.3804	-1.0547	-6.7456	-156.9452	44.6200	-192	-238	224	100850	0.40 
156.081	-0.0215	0.0327	1.2100	2.0752	-3.9673	0.0610	-0.8350	-5.7458	-155.9894	44.6100	-194	-234	221	100850	0.40 
156.096	-0.1450	0.1011	1.2642	1.1597	-4.3335	-6.4087	-0.6317	-5.0317	-155.5444	44.6100	-195	-235	221	100850	0.40 
156.096	0.5356	-0.1211	0.8101	-4.5166	-26.2451	1.2207	-0.5823	-7.5311	-153.9020	44.6200	-197	-238	226	100850	0.40 
156.143	0.0483	0.1274	1.2104	-0.3662	51.5137	-17.6392	-0.5383	-3.2849	-154.7919	44.6100	-187	-240	225	100850	0.40 
156.268	-0.0122	0.1382	1.1914	-0.8545	57.6782	-15.5640	-0.8899	2.0874	-155.7477	44.6000	-172	-238	216	100850	0.40 
156.346	-0.1357	0.2285	1.4785	-1.1597	73.4253	10.9253	-0.7031	9.1241	-155.8466	44.6100	-150	-240	211	100850	0.40 
156.503	-0.2012	-0.0586	1.6079	1.8311	80.0171	14.7705	-0.1483	16.2982	-153.9075	44.6100	-130	-236	204	100850	0.40 
156.550	-0.3560	0.0620	1.6675	-2.9297	78.7964	2.6245	0.1483	23.3075	-154.0009	44.6000	-107	-239	200	100849	0.40 
156.768	-0.5366	0.0469	1.7168	-2.8076	74.2798	-1.5869	-0.1703	30.3058	-154.9731	44.6000	-85	-237	197	100849	0.40 
156.768	-0.6343	0.0752	1.7886	-5.4321	66.1621	2.9297	-0.7581	36.3428	-156.7090	44.6100	-55	-240	200	100849	0.40 
156.925	-0.7173	0.0288	1.8120	-3.2959	57.6172	-5.7983	-1.8292	41.2976	-159.1479	44.6200	-31	-239	203	100849	0.40 
156.956	-0.8901	0.0073	1.9766	-4.2114	55.7251	-10.9863	-3.0927	45.9393	-162.2571	44.6000	-13	-239	207	100849	0.40 
157.122	-0.9595	0.0239	1.8271	-6.4087	39.8560	-5.4321	-5.3009	49.1583	-166.5363	44.6000	7	-239	214	100848	0.40 
157.281	-1.0103	0.0259	1.8979	-4.3335	27.4658	-2.7466	-6.7621	51.1963	-170.0903	44.6000	22	-235	218	100849	0.40 
157.359	-1.0435	0.0356	1.9072	-4.8828	14.2212	-1.1597	-7.8882	51.6742	-173.2654	44.6200	29	-231	220	100848	0.40 
157.375	-1.0195	0.0015	1.9004	-4.5166	9.0942	4.2114	-8.2562	51.2622	-175.4901	44.6000	35	-230	221	100848	0.40 
157.531	-0.9941	-0.0234	1.8892	-2.9907	4.5166	-1.1597	-8.6298	50.3174	-177.6654	44.6000	36	-228	223	100848	0.40 
157.734	-1.0332	0.0034	1.8452	-2.0752	1.2817	-4.0283	-9.4043	49.3066	179.3628	44.5800	39	-231	224	100848	0.40 
157.765	-1.0444	-0.0254	1.8867	-1.4648	1.0986	-2.1973	-9.7778	48.2520	176.9238	44.6100	41	-228	224	100848	0.40 
157.765	-1.0103	-0.0254	1.8945	-1.6479	1.6479	0.2441	-9.7723	47.0599	175.0342	44.6000	41	-228	224	100848	0.40 
157.922	-1.0322	-0.0171	1.8862	0.1221	2.2583	-0.1831	-9.6515	46.1206	173.2050	44.6100	41	-226	225	100848	0.40 
158.094	-1.0405	-0.0205	1.8716	0.7935	1.0376	-0.3052	-9.3219	45.2087	171.5460	44.6100	40	-226	223	100848	0.40 
158.156	-1.0400	-0.0132	1.8745	0.7324	-0.1221	-0.6104	-8.9923	44.2859	169.9969	44.6200	44	-226	224	100848	0.40 
158.281	-1.0288	-0.0122	1.8745	0.3662	-0.8545	-1.7090	-8.6792	43.2806	168.5358	44.6300	44	-228	222	100848	0.40 
158.359	-1.0371	-0.0122	1.8789	0.0000	-1.1597	-0.3662	-8.3881	42.2864	167.1185	44.6300	47	-226	225	100848	0.40 
158.390	-1.0391	-0.0117	1.8867	0.1831	-1.1597	0.4272	-8.0475	41.3251	165.8551	44.6300	47	-225	225	100847	0.40 
158.562	-1.0425	0.0020	1.9004	0.3662	-3.6011	-0.2441	-7.6245	40.3253	164.8224	44.6300	42	-228	226	100848	0.40 
158.703	-1.0166	-0.0068	1.8848	0.1831	-3.7842	0.2441	-7.1796	39.1937	163.9105	44.6300	42	-228	223	100848	0.40 
158.797	-1.0146	-0.0059	1.8945	-0.1221	-3.6011	-1.0986	-6.8390	38.2050	162.9932	44.6500	41	-228	225	100848	0.40 
158.922	-1.0146	-0.0039	1.8794	0.1221	-3.7231	-1.2817	-6.5698	37.1997	162.0593	44.6500	39	-229	220	100847	0.40 
158.969	-0.9976	0.0063	1.8940	-0.0610	-3.9063	0.9155	-6.1908	36.2988	161.3342	44.6500	40	-227	225	100848	0.40 
159.154	-1.0547	-0.0220	1.9102	2.1362	-13.7939	1.8921	-5.6689	35.0958	160.8453	44.6600	36	-225	220	100847	0.40 
159.217	-1.0532	0.0010	1.9146	2.0752	-34.4238	0.7324	-4.9988	32.3932	160.4993	44.6500	31	-226	218	100847	0.40 
159.342	-0.9756	0.0166	1.9385	0.7324	-58.1055	5.1880	-4.1528	27.6691	160.8838	44.6500	16	-230	215	100847	0.40 
159.388	-0.8853	-0.0537	1.9185	8.1787	-92.3462	-7.1411	-3.4113	20.2478	160.9442	44.6600	-2	-228	203	100847	0.40 
159.529	-0.6660	0.0947	1.6885	8.6670	-95.2759	8.4229	-2.4060	10.8710	160.9552	44.6600	-33	-228	198	100847	0.40 
159.592	-0.5640	0.0352	1.7197	4.6997	-96.8018	17.5171	-1.6589	2.3950	163.6633	44.6600	-65	-229	192	100848	0.40 
159.779	-0.3457	0.0073	1.5161	-1.7090	-100.9521	18.8599	-1.5930	-6.5204	166.9153	44.6700	-103	-226	191	100848	0.40 
159.810	-0.1055	-0.0850	1.4316	5.9204	-92.1021	-4.2725	-2.1808	-14.6503	170.7495	44.6600	-140	-230	198	100848	0.40 
159.935	0.0278	-0.0522	1.1499	1.1597	-70.9839	-11.9629	-2.5983	-21.9012	173.6609	44.6500	-170	-231	203	100848	0.40 
160.138	0.1006	0.0557	1.0171	1.6479	-41.4429	9.0942	-2.9553	-26.6638	176.4075	44.6600	-192	-231	215	100848	0.40 
160.201	0.0542	0.0459	0.8770	11.0474	-2.3804	-13.7939	-3.2904	-28.7677	179.6979	44.6500	-204	-230	223	100848	0.40 
160.201	0.0723	0.0420	1.0015	3.9673	-15.2588	-15.3198	-2.6477	-27.1802	-178.6432	44.6600	-205	-236	229	100848	0.40 
160.388	-0.1284	0.0156	1.1987	1.7700	-8.7280	-2.0142	-2.4225	-24.6313	-177.2864	44.6700	-207	-237	230	100848	0.40 
160.420	-0.0977	0.0586	1.2363	1.9531	9.3994	-4.3945	-2.2577	-22.8076	-175.6165	44.6800	-207	-236	230	100848	0.40 
160.545	-0.0229	0.0464	1.1758	0.5493	1.4038	0.0610	-2.2742	-20.9674	-173.7323	44.6600	-199	-238	229	100848	0.40 
160.623	-0.0586	0.0552	1.2227	-0.0610	0.0000	0.8545	-2.3181	-19.3579	-171.9745	44.6700	-200	-238	228	100848	0.40 
160.826	-0.0483	0.0522	1.2017	-0.2441	1.8921	0.6714	-2.4280	-18.0450	-170.1563	44.6300	-202	-236	227	100848	0.40 
160.888	-0.0513	0.0361	1.1997	0.0000	2.5635	0.4883	-2.4994	-16.6333	-168.3984	44.6500	-200	-235	229	100848	0.40 
161.013	-0.0557	0.0293	1.2168	-0.1221	1.2817	1.1597	-2.5433	-15.2710	-166.7065	44.6500	-200	-236	228	100848	0.40 
161.013	-0.0513	0.0356	1.2114	-0.3052	0.1831	0.1221	-2.5488	-14.1724	-165.2399	44.6400	-198	-239	226	100848	0.40 
161.176	-0.0566	0.0366	1.1963	-0.4272	0.7935	-0.1831	-2.5214	-13.2056	-163.9270	44.6300	-196	-237	228	100848	0.40 
161.207	-0.0493	0.0322	1.2168	0.1221	-1.0986	1.4038	-2.4445	-12.1783	-162.6746	44.6500	-199	-240	224	100848	0.40 
161.379	-0.0605	0.0356	1.2300	-0.1831	1.6479	1.0986	-2.3840	-11.1896	-161.4386	44.6500	-199	-240	226	100848	0.40 
161.442	-0.0488	0.0264	1.2124	-0.4272	-0.8545	-1.4648	-2.3126	-10.4425	-160.3345	44.6400	-199	-238	226	100848	0.40 
161.598	-0.0522	0.0352	1.2065	-0.3662	-1.3428	0.2441	-2.2137	-9.7943	-159.3182	44.6400	-198	-235	226	100847	0.40 
161.629	-0.0542	0.0430	1.2144	0.0000	-0.3052	-0.3662	-2.0984	-9.1132	-158.3569	44.6300	-199	-240	226	100848	0.40 
161.785	-0.0557	0.0293	1.2148	-0.2441	-2.3804	-0.8545	-1.9995	-8.5419	-157.4451	44.6400	-199	-238	228	100848	0.40 
161.848	-0.0596	0.0332	1.2070	0.0000	-2.3804	-1.5869	-1.8567	-8.1573	-156.6870	44.6200	-200	-238	228	100847	0.40 
161.989	-0.0513	0.0337	1.2041	0.0000	-0.9155	-0.7324	-1.7358	-7.7069	-155.8960	44.6100	-200	-238	229	100847	0.40 
162.051	-0.0767	0.0410	1.2036	-0.9155	-0.4272	-0.1831	-1.6040	-7.2400	-155.1984	44.6200	-201	-238	229	100847	0.40 
162.223	-0.0293	0.0439	1.2002	-1.0986	-4.3945	0.6714	-1.5546	-6.8719	-154.4513	44.6300	-197	-237	231	100847	0.40 
162.254	-0.1538	0.0967	1.2778	-2.1362	2.4414	8.2397	-1.3788	-6.5753	-154.0173	44.6100	-198	-239	229	100848	0.40 
162.395	-0.1011	0.0142	1.0430	-1.1597	16.7847	-1.2207	-1.5161	-6.8225	-152.6550	44.6300	-200	-237	231	100848	0.40 
162.473	-0.1689	-0.0742	1.3223	-10.6201	-9.8877	13.0615	-1.4557	-4.4824	-151.8640	44.6100	-202	-234	230	100848	0.40 
162.614	0.0469	0.1890	1.0566	-2.1362	40.1001	-9.6436	-1.8677	-5.4712	-151.3861	44.6100	-204	-238	226	100848	0.40 
162.676	0.0396	-0.0215	1.0229	-2.4414	48.7671	-0.6714	-2.4445	-1.3184	-151.3696	44.6100	-193	-236	221	100848	0.40 
162.801	-0.1553	-0.0688	1.4272	-4.6997	72.3877	1.2207	-2.4774	5.8777	-150.9686	44.6100	-179	-237	208	100848	0.40 
162.973	-0.2764	0.0151	1.3979	-2.2583	69.3359	16.7236	-2.6038	12.6068	-150.7324	44.6100	-154	-234	203	100848	0.40 
163.051	-0.4590	-0.0093	1.4990	1.8311	68.8477	-1.6479	-2.6367	20.0940	-150.7489	44.6100	-133	-230	195	100848	0.40 
163.176	-0.4985	-0.0029	1.6665	0.0000	74.0967	-7.6904	-2.8674	27.2736	-152.2266	44.6100	-104	-230	191	100848	0.40 
163.192	-0.5674	0.0269	1.7515	-2.6245	79.2847	-4.6997	-3.5486	34.2444	-154.4623	44.6200	-77	-230	190	100847	0.40 
163.380	-0.7153	-0.0010	1.7632	-6.4087	65.9180	1.0376	-4.4550	40.3033	-156.8903	44.6200	-47	-232	197	100847	0.40 
163.442	-0.8320	-0.0059	1.8945	-2.1973	68.4204	-9.2163	-6.0699	46.2140	-160.4883	44.6200	-20	-230	201	100848	0.40 
163.583	-0.9932	-0.0776	1.8701	-6.1646	56.9458	-12.8174	-8.5913	51.0480	-165.5640	44.6200	5	-231	207	100847	0.40 
163.614	-1.1240	0.0391	1.9355	-3.8452	44.2505	-6.4087	-11.9586	54.4867	-171.7273	44.6400	26	-225	215	100847	0.40 
163.786	-1.1167	-0.0508	1.9102	-4.3945	29.1138	2.3804	-13.2385	56.3434	-175.5725	44.6300	43	-224	223	100848	0.40 
163.864	-1.1172	-0.0103	1.8867	-1.0376	16.9067	1.0986	-14.3042	56.6949	-179.1266	44.6300	50	-225	227	100848	0.40 
163.989	-1.1494	-0.0171	1.8921	1.2817	-2.2583	4.7607	-14.0021	55.8875	178.4619	44.6100	54	-226	233	100847	0.40 
164.083	-1.1118	-0.0356	1.8682	-0.5493	0.9766	8.0566	-12.6672	54.3658	177.4786	44.6300	57	-227	231	100847	0.40 
164.192	-1.0942	-0.0112	1.8594	0.4883	-3.5400	0.6714	-12.0959	52.6849	175.8636	44.6400	53	-227	229	100847	0.40 
164.286	-1.0913	-0.0181	1.8818	-0.9766	-0.1221	-1.0986	-11.8213	51.1963	173.8806	44.6400	53	-230	232	100847	0.40 
164.426	-1.1064	-0.0273	1.8770	-1.2817	-1.1597	-1.3428	-11.7664	49.7900	171.8866	44.6400	53	-229	229	100847	0.40 
164.473	-1.1016	-0.0347	1.8794	-0.4883	-2.1973	-0.9766	-11.6125	48.4387	170.0244	44.6400	53	-226	231	100847	0.40 
164.661	-1.0933	-0.0288	1.8599	-0.1831	-4.4556	0.2441	-11.1566	46.9995	168.5303	44.6400	51	-227	232	100847	0.40 
164.676	-1.0933	-0.0249	1.8701	-0.1831	-2.9297	-0.3662	-10.7391	45.6647	167.1405	44.6600	51	-229	230	100847	0.40 
164.801	-1.0864	-0.0254	1.8784	-0.1221	-4.6387	-0.4272	-10.2887	44.2749	165.8551	44.6500	52	-227	229	100847	0.40 
164.880	-1.0791	-0.0254	1.8804	-0.4272	-7.5073	-0.3662	-9.8767	42.8247	164.6576	44.6600	49	-226	225	100847	0.40 
165.020	-1.0703	-0.0249	1.8804	-0.3052	-9.1553	-1.4648	-9.4318	41.2317	163.6194	44.6700	45	-227	226	100846	0.40 
165.098	-1.0728	-0.0518	1.9160	-1.3428	-11.2305	-3.4790	-9.0912	39.4849	162.5812	44.6800	41	-226	225	100846	0.40 
165.224	-1.0293	0.0234	1.8906	-2.9907	-27.4048	-17.7002	-9.6515	36.5570	160.5487	44.6700	42	-226	222	100846	0.40 
165.302	-1.0498	-0.0264	1.8906	-0.3052	-49.0112	-8.4839	-9.6625	32.3767	159.3292	44.6800	32	-223	214	100846	0.40 
165.458	-0.8013	-0.0898	1.8530	0.9766	-56.2134	-1.8921	-8.9648	26.6913	159.1809	44.6700	18	-217	204	100845	0.40 
165.489	-0.7622	-0.0483	1.8691	-0.6104	-62.8052	-3.3569	-8.0969	20.8521	159.9664	44.6800	0	-219	196	100846	0.40 
165.645	-0.7412	-0.0122	1.7437	3.7231	-66.8945	-0.9155	-7.2070	14.2932	160.8508	44.6900	-23	-219	189	100846	0.40 
165.708	-0.6484	0.0049	1.8208	9.0332	-77.2095	10.1318	-5.9875	7.8223	162.3560	44.6700	-45	-220	186	100846	0.40 
165.864	-0.4907	-0.0400	1.6416	5.3101	-88.3179	10.5591	-5.0317	0.1373	165.4486	44.6800	-81	-219	181	100845	0.40 
165.895	-0.2793	-0.0640	1.4243	2.9907	-101.1353	9.6436	-4.8779	-7.9980	169.2279	44.6900	-114	-221	182	100846	0.40 
166.036	-0.0684	0.0825	1.3965	9.8267	-83.3130	-10.8032	-4.1144	-15.3973	171.3208	44.6800	-151	-225	189	100846	0.40 
166.224	-0.0078	0.0396	1.1846	10.4370	-57.9834	2.1362	-3.1915	-21.5057	174.2157	44.6800	-170	-228	202	100846	0.40 
166.286	0.0308	-0.0049	0.9902	6.2256	-50.9644	-11.4136	-3.0981	-26.0431	177.5281	44.6800	-192	-225	214	100846	0.40 
166.442	-0.1670	-0.0190	0.9521	6.4087	-10.3760	-9.8267	-2.9718	-28.2404	179.7198	44.7100	-207	-229	223	100846	0.40 
166.489	-0.1099	0.0947	1.0732	2.3804	-3.1738	-8.3618	-2.1973	-27.9053	-179.3134	44.6700	-209	-235	231	100846	0.40 
166.520	0.0151	0.0908	1.0562	4.0283	9.7656	-5.4321	-1.6589	-25.9387	-178.0554	44.6900	-205	-240	231	100846	0.40 
166.677	-0.1040	0.0732	1.1387	0.1831	16.8457	-6.1035	-1.4172	-23.0164	-176.4844	44.6700	-199	-237	229	100847	0.40 
166.724	-0.0337	0.0776	1.1787	0.0610	-3.4180	0.1831	-1.2909	-20.6818	-174.8145	44.6800	-195	-240	231	100847	0.40 
166.911	-0.0825	0.0854	1.1816	-0.7935	-3.2959	2.6245	-1.4447	-19.3909	-172.9907	44.6700	-195	-242	230	100847	0.40 
167.036	-0.0269	0.0781	1.1680	-0.4883	1.9531	0.9155	-1.5491	-18.1659	-171.1945	44.6700	-196	-241	230	100848	0.40 
167.099	-0.0347	0.0845	1.1729	0.1221	4.8828	0.4883	-1.4996	-16.7267	-169.6234	44.6600	-196	-240	230	100847	0.40 
167.255	-0.0386	0.0781	1.1851	0.0000	0.6104	1.4038	-1.4557	-15.2930	-167.9865	44.6600	-195	-240	227	100848	0.40 
167.286	-0.0381	0.0757	1.1914	0.0000	-0.4272	-0.2441	-1.4227	-14.1669	-166.5143	44.6600	-195	-242	226	100848	0.40 
167.443	-0.0459	0.0767	1.1797	0.3662	1.0376	-0.4272	-1.2964	-13.1836	-165.2234	44.6800	-198	-241	226	100848	0.40 
167.505	-0.0483	0.0781	1.1865	0.0610	0.2441	-0.0610	-1.1591	-12.1783	-163.9929	44.6900	-197	-242	226	100848	0.40 
167.661	-0.0483	0.0771	1.1909	-0.5493	-0.0610	1.2207	-1.0382	-11.2610	-162.7899	44.6800	-195	-239	229	100848	0.40 
167.849	-0.0405	0.0796	1.1973	0.2441	0.4883	-0.8545	-0.9393	-10.4974	-161.6528	44.6700	-195	-241	228	100848	0.40 
167.896	-0.0298	0.0566	1.1729	-0.1831	-2.0142	-1.5869	-0.8075	-9.8877	-160.5762	44.6600	-193	-240	229	100847	0.40 
167.896	-0.0488	0.0757	1.1851	-0.7324	-1.7090	1.0986	-0.6592	-9.3109	-159.6533	44.6600	-196	-238	229	100848	0.40 
168.052	-0.0552	0.0811	1.1812	-0.2441	-0.4883	-2.3804	-0.5493	-8.7396	-158.7854	44.6700	-195	-238	228	100848	0.40 
168.115	-0.0449	0.0674	1.1729	-0.4883	-2.2583	-0.1221	-0.3955	-8.2123	-158.0054	44.6800	-195	-241	231	100848	0.40 
168.255	-0.0483	0.0801	1.1748	-0.5493	-1.4648	0.0000	-0.2417	-7.7179	-157.2583	44.6700	-197	-242	227	100848	0.40 
168.287	-0.0459	0.0747	1.1729	-0.1221	-1.2817	-1.9531	-0.0934	-7.2400	-156.5442	44.6700	-197	-241	231	100848	0.40 
168.474	-0.0972	0.0649	1.2129	-0.6104	5.2490	22.4609	0.0439	-5.9875	-155.4565	44.6700	-196	-242	228	100848	0.40 
168.537	0.0171	0.0854	1.1548	1.6479	-2.8687	-2.8076	0.2252	-5.6964	-154.7864	44.6700	-195	-240	232	100848	0.40 
168.646	0.4502	0.0317	0.9600	-8.1177	-37.6587	-10.0098	-0.0165	-6.3171	-153.5889	44.6800	-200	-237	231	100848	0.40 
168.724	0.0220	0.0884	1.0654	-1.5869	47.7295	-8.1177	0.0934	-4.1089	-154.1217	44.6800	-196	-240	233	100848	0.40 
168.912	0.0098	0.1377	1.1294	-3.0518	68.7256	-6.7749	-0.1208	1.4117	-153.8525	44.6900	-181	-241	220	100848	0.40 
169.083	-0.1533	0.0742	1.4375	-6.7749	78.0029	-1.8311	-0.3076	8.8055	-153.7482	44.6900	-160	-239	212	100847	0.40 
169.130	-0.3608	-0.0400	1.6016	-3.5400	83.8623	3.8452	-0.1813	16.1829	-152.1716	44.6800	-140	-237	203	100847	0.40 
169.130	-0.4141	0.0732	1.6240	-3.7231	73.9136	-4.5776	-0.0330	22.9120	-151.8530	44.6900	-116	-235	199	100847	0.40 
169.271	-0.4297	0.0034	1.6792	-2.0752	81.2988	0.5493	0.1758	30.0037	-151.8146	44.7000	-94	-231	192	100847	0.40 
169.380	-0.5981	0.0068	1.7397	-4.8828	72.4487	-7.6294	-0.5768	36.8976	-153.6658	44.6700	-65	-234	193	100847	0.40 
169.521	-0.7217	0.0596	1.8433	-10.2539	75.9277	-6.8970	-2.4500	43.0060	-156.7584	44.6800	-39	-230	198	100847	0.40 
169.708	-0.9307	0.0044	1.9106	-7.2021	54.3823	-5.5542	-4.8230	48.3234	-160.8893	44.6900	-11	-232	205	100847	0.40 
169.802	-0.9995	-0.0479	1.8779	-4.5166	36.6821	-6.7749	-7.1521	51.2622	-165.3442	44.6800	11	-226	210	100848	0.40 
169.960	-1.0239	-0.0205	1.9077	-3.4790	25.6958	-0.8545	-8.8660	52.7728	-169.5355	44.6700	23	-225	217	100848	0.40 
170.103	-1.0415	-0.0039	1.8921	-3.1128	16.9678	-1.9531	-10.2832	53.2727	-173.3588	44.6700	35	-226	220	100847	0.40 
170.118	-1.0483	-0.0034	1.8906	1.3428	8.7280	0.2441	-10.8380	53.0530	-176.4404	44.6800	38	-227	222	100847	0.40 
170.172	-1.0444	-0.0229	1.8887	4.1504	5.4321	3.3569	-10.2722	52.3608	-178.5773	44.6900	44	-225	223	100847	0.40 
170.335	-1.0425	-0.0088	1.8838	2.3193	2.9297	3.3569	-9.4922	51.3776	179.6484	44.6800	44	-228	224	100847	0.40 
170.451	-1.0459	0.0039	1.8906	5.7983	1.9531	1.7090	-8.7671	50.2515	177.7972	44.6800	44	-228	225	100846	0.40 
170.720	-1.0342	0.0044	1.8955	4.1504	-4.6387	0.0000	-7.7728	48.7848	176.3745	44.7000	43	-232	228	100847	0.40 
170.872	-1.0283	0.0410	1.8682	2.9907	-4.0894	-0.3052	-7.2235	47.2577	174.6442	44.7000	43	-230	227	100846	0.40 
170.873	-1.0820	0.0293	1.9063	2.5635	-7.5684	4.0894	-6.7236	45.8020	173.0786	44.6900	40	-233	227	100846	0.40 
170.873	-0.9873	0.0371	1.8701	0.1221	-3.2349	1.7700	-5.9052	44.0442	172.2382	44.7100	39	-231	227	100846	0.40 
170.952	-1.0103	0.0371	1.9028	-0.5493	-8.7891	-2.1362	-5.7898	42.4512	170.7660	44.7200	38	-234	225	100846	0.40 
171.221	-0.9937	0.0210	1.9053	0.6714	-15.5029	-12.4512	-5.9326	40.4132	168.8818	44.7200	35	-236	228	100846	0.40 
171.237	-0.9668	0.0645	1.8794	-0.7324	-18.9819	-4.1504	-6.0974	37.7875	166.9867	44.7200	34	-232	226	100846	0.40 
171.321	-0.9673	0.0225	1.9063	-0.7935	-27.8931	-5.7983	-6.1194	34.8596	165.8276	44.7200	28	-232	217	100846	0.40 
171.453	-0.9199	0.0283	1.9014	0.7935	-35.7056	-7.7515	-5.9656	31.2396	164.7070	44.7200	19	-231	214	100846	0.40 
171.506	-0.8965	0.0278	1.9082	1.6479	-58.6548	-3.0518	-5.5042	26.4056	164.1467	44.7300	11	-227	206	100846	0.40 
171.638	-0.7041	0.0425	1.7910	5.1270	-83.2520	2.8687	-4.3231	19.1052	164.7949	44.7300	-12	-227	199	100846	0.40 
171.754	-0.5981	0.0625	1.7251	6.4087	-71.0449	3.4180	-3.3563	12.0355	165.6793	44.7300	-37	-228	193	100846	0.40 
171.773	-0.4990	0.1230	1.6826	3.1738	-73.3032	12.8174	-2.5653	5.5701	167.4097	44.7300	-62	-228	190	100846	0.40 
171.823	-0.3350	-0.0679	1.6284	1.5259	-82.5806	14.8315	-2.3181	-1.3129	170.6561	44.7300	-90	-230	192	100846	0.40 
171.992	-0.1689	-0.0532	1.3862	2.2583	-72.3267	2.6855	-2.4554	-8.9319	173.4027	44.7300	-122	-227	191	100846	0.40 
171.992	-0.0859	0.0845	1.3247	6.2256	-69.0918	5.0659	-2.1808	-14.6338	175.6165	44.7200	-149	-226	199	100846	0.40 
172.076	0.0073	0.0498	1.2036	1.0986	-41.9312	1.8921	-2.1039	-19.3140	178.7201	44.7100	-172	-230	207	100846	0.40 
172.257	0.1880	-0.0083	1.0850	3.6011	-52.6733	5.0659	-2.4994	-22.6208	-177.8247	44.7400	-188	-230	214	100846	0.40 
172.656	0.1343	-0.0605	0.9775	6.7139	-25.0244	-15.3198	-2.1643	-25.0159	-175.4297	44.7100	-201	-232	225	100847	0.40 
172.656	-0.0313	0.1304	1.0479	2.9907	-27.4048	-9.9487	-1.1975	-24.6039	-174.5782	44.7300	-206	-232	229	100847	0.40 
172.656	0.0327	0.0396	1.0645	3.3569	10.5591	-10.6812	-0.9448	-23.3514	-172.7435	44.7200	-206	-235	232	100847	0.40 
172.725	-0.0122	0.1426	1.2026	1.7700	2.3193	1.5259	-0.6372	-20.5939	-171.6064	44.7300	-204	-239	234	100847	0.40 
172.876	-0.0903	0.0161	1.2559	0.5493	2.9907	-2.0142	-0.7416	-19.0778	-169.7333	44.7000	-199	-239	234	100847	0.40 
173.057	-0.0107	0.0542	1.1133	0.0000	-1.5259	-1.3428	-0.6647	-18.2922	-168.4424	44.7100	-203	-239	229	100847	0.40 
173.141	-0.0229	0.0435	1.1172	1.2207	-1.3428	0.9155	-0.7690	-17.1936	-166.7065	44.6900	-201	-243	232	100847	0.40 
173.141	-0.0391	0.0820	1.1895	-0.1221	5.3711	2.1973	-0.7361	-15.6281	-165.2509	44.7000	-202	-243	230	100847	0.40 
173.195	-0.0571	0.0654	1.1870	-0.9155	0.6714	-2.6245	-0.7581	-14.3811	-163.9709	44.7000	-204	-240	234	100847	0.40 
173.195	-0.0376	0.0571	1.1597	-0.7324	0.1831	0.7935	-0.7635	-13.3704	-162.8064	44.7000	-198	-241	228	100846	0.40 
173.379	-0.0532	0.0640	1.1772	-0.3052	1.8311	-0.0610	-0.7690	-12.3102	-161.5924	44.6800	-200	-239	229	100846	0.40 
173.558	-0.0454	0.0586	1.1812	-0.3052	0.2441	-0.6714	-0.7031	-11.3049	-160.5103	44.6800	-199	-238	229	100846	0.40 
173.627	-0.0298	0.0605	1.1729	0.0000	0.7324	-0.3662	-0.5933	-10.4590	-159.5325	44.7000	-199	-238	227	100846	0.40 
173.627	-0.0552	0.0654	1.1909	-0.1831	0.2441	-0.4883	-0.5164	-9.5856	-158.6810	44.7000	-196	-240	230	100847	0.40 
173.774	-0.0562	0.0693	1.1753	-0.4883	0.6714	-1.1597	-0.4175	-8.8715	-157.8571	44.6900	-198	-241	229	100846	0.40 
173.797	-0.0464	0.0723	1.1880	-0.1831	1.2817	0.4883	-0.3021	-8.1079	-157.0056	44.6900	-199	-240	230	100847	0.40 
174.213	-0.0474	0.0713	1.1943	0.0000	0.5493	-1.0376	-0.1868	-7.4213	-156.2256	44.6900	-197	-237	228	100847	0.40 
174.213	-0.0503	0.0396	1.2124	-1.6479	-0.1831	-1.3428	-0.1263	-6.8280	-155.5060	44.7000	-196	-240	228	100847	0.40 
174.313	-0.0840	0.1152	1.2080	0.6714	-0.4272	-5.1270	-0.0549	-6.4050	-155.0610	44.7000	-194	-240	229	100847	0.40 
174.360	-0.0034	0.0586	1.0996	-3.5400	-11.3525	-0.3052	-0.0220	-6.5918	-153.9349	44.6900	-199	-238	228	100847	0.40 
174.583	-0.0669	0.0190	1.0845	-3.4790	0.6714	-11.9019	-0.1758	-5.7184	-153.2428	44.6900	-200	-237	230	100847	0.40 
174.783	0.0493	0.1670	1.1611	-9.5215	37.1094	-7.9956	-0.6921	-4.0869	-153.5449	44.7000	-194	-239	228	100847	0.40 
174.783	0.0210	0.0186	1.2021	-2.1362	53.5889	9.1553	-1.0437	0.4669	-152.5177	44.7200	-184	-239	218	100847	0.40 
174.984	-0.1851	0.0112	1.3022	-6.7139	59.5093	-0.1831	-1.3513	6.1249	-152.1277	44.7100	-169	-235	210	100847	0.40 
174.984	-0.1577	0.0527	1.4326	-5.0049	67.0166	19.4092	-1.6150	12.4805	-151.3586	44.7000	-153	-233	204	100847	0.40 
175.046	-0.1177	-0.0020	1.6094	-2.6855	81.9702	6.2866	-1.7358	19.2645	-150.6555	44.6900	-128	-232	194	100847	0.40 
175.046	-0.3291	-0.0186	1.6416	-3.3569	88.6841	6.5918	-1.8182	26.0541	-151.3422	44.7100	-105	-229	188	100847	0.40 
175.184	-0.5132	-0.0010	1.6997	-7.0801	81.4209	-0.8545	-2.8125	33.3325	-153.4131	44.7000	-82	-229	191	100847	0.40 
175.263	-0.6333	0.0698	1.7607	-7.5073	77.8198	6.1035	-3.9441	39.9353	-155.6653	44.7000	-50	-227	191	100847	0.40 
175.416	-0.8091	0.0122	1.9053	-8.1787	70.3125	-2.1973	-5.4163	45.9998	-158.5931	44.7100	-21	-231	195	100847	0.40 
175.501	-0.9790	-0.0474	1.8130	-7.0190	64.2700	-1.0986	-7.3608	50.8337	-162.4274	44.7000	4	-226	205	100847	0.40 
175.617	-1.0879	-0.0791	1.9238	-0.3662	60.7910	-8.7280	-10.2008	55.6238	-168.0139	44.7000	26	-224	215	100848	0.40 
175.686	-1.1133	-0.1035	1.8628	-4.7607	38.7573	-2.6245	-13.0573	58.5022	-173.7103	44.7000	45	-223	223	100848	0.40 
175.802	-1.2280	-0.0288	1.8799	-0.7324	25.5127	0.5493	-15.5292	59.9030	-179.0771	44.7100	58	-222	230	100848	0.40 
175.849	-1.2617	-0.0571	1.8540	5.2490	9.3994	-5.2490	-16.5454	59.8975	176.5063	44.7200	65	-224	232	100848	0.40 
176.017	-1.1997	-0.0146	1.8799	1.7090	-0.1831	3.1738	-16.0895	58.6176	173.9410	44.7100	69	-222	238	100848	0.40 
176.033	-1.1738	-0.0322	1.8628	0.8545	-2.7466	-1.7700	-15.4248	56.7664	171.9470	44.7200	74	-222	237	100848	0.40 
176.118	-1.1733	-0.0249	1.8691	0.0610	-5.4932	0.9766	-14.9908	54.8547	169.8596	44.7200	71	-223	234	100848	0.40 
176.222	-1.1587	-0.0298	1.8701	0.9766	-7.3242	3.4790	-14.0570	52.8772	168.5358	44.7300	74	-226	239	100848	0.40 
176.385	-1.1401	-0.0391	1.8760	1.6479	-2.9907	4.6997	-12.8320	51.2292	167.6129	44.7200	67	-226	236	100848	0.40 
176.438	-1.1406	-0.0308	1.8647	-0.6104	0.1221	2.8687	-11.9092	49.8724	166.5912	44.7300	65	-224	235	100848	0.40 
176.602	-1.1387	-0.0195	1.8745	-1.2207	0.0610	-1.4038	-11.4532	48.7573	165.2838	44.7400	66	-225	236	100848	0.40 
176.654	-1.1895	-0.0254	1.8828	-2.0142	-0.7324	-5.5542	-11.5192	47.6587	163.3832	44.7300	65	-225	234	100848	0.40 
176.870	-1.1304	-0.0669	1.8931	3.4180	1.5869	-0.3052	-11.4093	46.5271	161.4771	44.7500	64	-227	234	100848	0.40 
177.055	-1.1333	-0.0425	1.8521	2.0142	0.0000	2.8687	-10.5469	45.6207	160.5597	44.7300	64	-229	231	100848	0.40 
177.124	-1.1602	-0.0142	1.8672	3.8452	-0.2441	3.0518	-9.5416	44.8572	159.8071	44.7500	68	-228	235	100848	0.40 
177.209	-1.1504	-0.0098	1.8550	2.6855	-0.2441	-0.1831	-8.7012	44.0057	158.8403	44.7500	67	-229	235	100848	0.40 
177.256	-1.1592	0.0000	1.8647	2.0142	-0.8545	0.1831	-8.0969	43.2587	157.7911	44.7300	64	-228	239	100848	0.40 
177.271	-1.1602	-0.0044	1.8618	2.3193	-0.7324	2.0752	-7.4213	42.5116	156.9781	44.7500	67	-231	235	100849	0.40 
177.440	-1.1421	-0.0049	1.8862	1.7700	0.5493	1.6479	-6.6797	41.9073	156.3684	44.7500	64	-233	239	100848	0.40 
177.556	-1.1489	0.0122	1.8682	-0.1831	1.9531	1.0376	-6.1578	41.4130	155.7751	44.7600	63	-229	242	100848	0.40