5
StartTime: 2017-07-11 15:23:39.304
Time(s)	ax(g)	ay(g)	az(g)	wx(deg/s)	wy(deg/s)	wz(deg/s)	AngleX(deg)	AngleY(deg)	AngleZ(deg)	T(°)	hx	hy	hz	Pressure(Pa)	Altitude(m) 
102.283	-1.1230	-0.0205	1.8726	0.1831	0.3052	-0.1221	-0.9833	30.3552	147.7936	43.7600	30	-242	235	100854	0.39 
102.471	-1.1157	-0.0171	1.8735	0.4272	-1.1597	0.2441	-0.9283	30.3552	147.8101	43.7400	34	-242	236	100853	0.39 
102.502	-1.1216	-0.0166	1.8726	0.1221	-0.6714	-0.1831	-0.8734	30.2783	147.8101	43.7500	34	-241	234	100853	0.39 
102.611	-1.1191	-0.0171	1.8765	-0.3662	1.1597	-0.4272	-0.8954	30.3168	147.7991	43.7700	34	-240	237	100854	0.39 
102.877	-1.1567	-0.0142	1.8926	0.4272	-3.9063	1.4038	-0.8514	30.2563	147.8101	43.7700	33	-241	236	100853	0.39 
102.955	-1.0874	-0.0122	1.8623	0.7935	0.4883	0.3662	-0.7361	30.0201	147.9089	43.7700	35	-244	238	100853	0.39 
103.065	-1.1304	-0.0225	1.8936	0.7935	-1.1597	-1.7700	-0.6866	30.0366	147.8595	43.7700	34	-240	240	100853	0.39 
103.252	-1.1475	-0.0122	1.9165	-2.3193	-15.0757	-11.3525	-1.0217	29.4379	147.2827	43.7700	33	-241	238	100853	0.39 
103.299	-1.1353	-0.0103	1.9082	-4.8218	-26.2451	-4.3945	-1.6754	27.4493	146.5741	43.7700	31	-238	231	100853	0.39 
103.424	-1.1133	0.0063	1.9204	-7.8735	-54.9316	-7.0190	-2.5433	23.7195	146.1292	43.7600	22	-237	225	100853	0.39 
103.424	-0.9424	-0.0898	1.9058	-8.3618	-66.2842	-3.6621	-3.3453	18.2318	146.4478	43.7600	4	-231	214	100853	0.39 
103.486	-0.9097	-0.0088	1.8164	-2.6855	-105.8350	-8.5449	-3.6255	10.3217	147.0300	43.7700	-18	-228	203	100853	0.39 
103.518	-0.6016	0.0757	1.8364	-15.0146	-58.1055	12.2681	-4.2847	3.8617	148.2275	43.7900	-45	-225	196	100853	0.39 
103.658	-0.4785	-0.1553	1.6162	-9.2773	-78.1860	-6.6528	-5.9711	-1.9391	151.5179	43.7700	-71	-221	189	100853	0.39 
103.752	-0.3892	-0.0557	1.6401	-9.2773	-71.7773	-0.4272	-7.1686	-8.0365	153.6053	43.7800	-98	-218	186	100853	0.39 
103.877	-0.2681	-0.1484	1.5176	-9.5215	-70.4346	3.7231	-8.6243	-13.8757	157.3407	43.7800	-127	-213	182	100853	0.39 
104.057	-0.2466	-0.1909	1.4683	-4.2114	-60.5469	-5.2490	-9.8932	-18.4680	161.5265	43.7800	-153	-209	186	100853	0.39 
104.119	-0.1602	-0.0239	1.3394	-1.7090	-49.6826	-2.5024	-10.6128	-22.4396	165.0806	43.7800	-172	-209	193	100854	0.39 
104.276	-0.1567	-0.1162	1.2915	-2.0142	-23.3154	4.5776	-11.7279	-24.4775	169.6509	43.7900	-189	-212	195	100854	0.39 
104.369	-0.2710	-0.1050	1.3799	-0.1831	17.9443	1.8311	-12.5134	-24.3842	173.4192	43.7600	-200	-209	205	100854	0.39 
104.573	-0.4302	-0.0801	1.6157	-2.9297	-0.1221	-3.2349	-12.8265	-23.0328	175.9570	43.7900	-200	-211	203	100853	0.39 
104.666	-0.2920	-0.0884	1.3291	0.9155	-4.0894	7.5684	-13.7329	-24.1315	-179.9121	43.7800	-206	-208	208	100853	0.39 
104.666	-0.0986	-0.1108	1.2778	4.2725	0.8545	-6.3477	-13.8263	-23.5217	-176.5997	43.7900	-210	-208	214	100853	0.39 
104.713	0.0083	-0.1704	1.1313	4.6387	-6.0425	1.7090	-13.5132	-22.1539	-174.2542	43.7600	-211	-211	217	100853	0.39 
104.744	-0.1592	-0.0942	1.3496	6.4697	8.7280	-10.5591	-12.4255	-20.1050	-173.1610	43.7700	-210	-211	214	100853	0.39 
105.057	-0.0737	-0.0674	1.2788	1.9531	-1.1597	-3.9673	-11.8762	-18.9734	-171.5131	43.7700	-209	-217	216	100853	0.39 
105.151	-0.0693	-0.0864	1.2642	1.2817	-2.8076	-6.5308	-11.5796	-17.7979	-169.8376	43.7700	-205	-216	215	100853	0.39 
105.198	-0.0713	-0.0840	1.2373	1.0376	-2.3804	-2.5024	-11.2335	-16.8640	-168.2886	43.7700	-206	-217	215	100852	0.39 
105.307	-0.0933	-0.0708	1.2832	0.7324	1.2207	-3.2959	-10.9204	-15.5896	-166.7615	43.7500	-207	-218	217	100853	0.39 
105.401	-0.0845	-0.0679	1.2769	0.4883	0.7324	-2.2583	-10.6842	-14.3811	-165.2563	43.7700	-208	-217	217	100852	0.39 
105.573	-0.0830	-0.0581	1.2700	0.0610	-0.1221	0.2441	-10.4150	-13.2550	-163.7787	43.7800	-207	-216	220	100853	0.39 
105.651	-0.0962	-0.0767	1.2856	-0.0610	1.5869	0.3662	-10.2228	-12.0850	-162.1967	43.7800	-205	-218	217	100853	0.39 
105.791	-0.0742	-0.0674	1.2837	-0.4272	0.3052	0.6104	-10.0140	-11.0577	-160.8179	43.7900	-204	-221	216	100853	0.39 
105.869	-0.1016	-0.0732	1.2705	0.2441	-0.0610	-0.6714	-9.8273	-10.2228	-159.3073	43.7800	-204	-220	217	100852	0.39 
106.041	-0.0488	-0.0659	1.2676	0.0610	-3.2959	-2.8076	-9.4922	-9.4977	-158.3844	43.7900	-202	-215	216	100853	0.39 
106.166	-0.0806	-0.0640	1.2744	-0.3052	0.0000	-0.7324	-9.2230	-8.7946	-157.3682	43.8000	-203	-220	220	100853	0.39 
106.463	-0.0845	-0.0625	1.2778	0.0000	0.0000	-1.4038	-8.9539	-8.0804	-156.4069	43.8000	-205	-221	217	100853	0.39 
106.463	-0.0698	-0.0684	1.2661	0.0000	-1.6479	-1.3428	-8.6957	-7.4817	-155.3741	43.8200	-202	-222	221	100853	0.39 
106.573	-0.0786	-0.0493	1.2671	-0.3662	-1.6479	-1.0376	-8.4375	-6.9763	-154.5007	43.8200	-205	-225	218	100852	0.39 
106.573	-0.0791	-0.0537	1.2686	-0.6714	-1.5259	0.0000	-8.2123	-6.4545	-153.5779	43.8000	-204	-221	220	100852	0.39 
106.573	-0.0640	-0.0513	1.2661	-0.6104	-1.2817	-0.4272	-8.0090	-5.9985	-152.7045	43.8000	-205	-224	222	100852	0.39 
106.573	-0.0854	-0.0645	1.2690	-0.3662	-1.8311	0.3052	-7.8168	-5.5865	-151.8750	43.8000	-204	-223	220	100852	0.39 
106.823	-0.0820	-0.0562	1.2729	-0.3052	-0.6714	-1.0376	-7.5970	-5.1965	-151.1115	43.8300	-205	-224	216	100852	0.39 
107.060	-0.0640	-0.0679	1.2354	-0.4272	-2.8076	-0.8545	-7.3993	-4.9438	-150.3424	43.8200	-204	-221	220	100852	0.39 
107.060	-0.0674	-0.0508	1.2554	-0.4883	-1.5259	0.1831	-7.1796	-4.5758	-149.6283	43.8100	-207	-219	219	100852	0.39 
107.169	-0.1343	-0.0503	1.2759	-1.9531	6.1646	5.0659	-7.0697	-3.9771	-148.8757	43.8200	-207	-219	220	100852	0.39 
107.372	-0.1201	-0.0010	1.2417	-0.3662	8.6060	1.6479	-6.9653	-3.2245	-147.7002	43.8200	-205	-220	217	100853	0.39 
107.468	-0.0254	-0.0859	1.1812	2.3193	-10.6201	0.1831	-6.6962	-2.9114	-147.7222	43.8300	-203	-218	220	100852	0.39 
107.631	0.1431	-0.2349	1.1616	-2.3804	-14.8315	2.6245	-6.7401	-3.8068	-146.3434	43.8200	-208	-217	220	100853	0.39 
107.631	0.0591	-0.1323	1.1138	3.5400	43.6401	-16.9678	-5.9930	-2.1423	-145.8984	43.8400	-211	-220	224	100853	0.39 
107.716	-0.0625	0.0747	1.2622	9.8267	54.2603	-9.7656	-5.0647	3.0487	-147.2717	43.8300	-196	-224	216	100853	0.39 
107.916	-0.1045	0.0557	1.5210	9.6436	65.0024	11.7798	-3.7354	9.2230	-147.1014	43.8600	-168	-228	212	100853	0.39 
107.916	-0.1655	-0.2188	1.5596	6.8359	66.3452	21.7285	-2.3456	14.8151	-144.8438	43.8500	-155	-226	207	100853	0.39 
108.233	-0.2485	-0.0107	1.6250	13.2446	57.1289	6.5308	-1.0437	20.1874	-144.8438	43.8400	-142	-227	204	100853	0.39 
108.233	-0.3291	-0.0659	1.6416	12.2070	57.3120	-4.3945	0.2032	25.2301	-145.3986	43.8400	-123	-233	203	100853	0.39 
108.255	-0.4966	-0.0122	1.7231	10.5591	62.8662	-7.8125	0.7416	30.6244	-147.4860	43.8300	-101	-238	203	100853	0.39 
108.433	-0.6748	0.0303	1.7769	5.5542	71.0449	-13.9160	0.7361	36.4856	-149.6832	43.8600	-79	-242	206	100853	0.39 
108.602	-0.7090	-0.0024	1.7720	5.2490	74.6460	-6.4087	0.5328	42.5281	-152.2925	43.8400	-51	-244	213	100854	0.39 
108.618	-0.8706	0.0239	1.8706	1.7700	52.3071	-0.9766	0.0385	47.8619	-155.4071	43.8500	-28	-244	219	100853	0.39 
108.787	-1.0220	0.0405	1.8423	2.3804	48.0957	-11.2915	-1.4557	51.5533	-159.7247	43.8600	-5	-247	226	100854	0.39 
108.803	-1.0854	0.0205	1.8813	1.7700	47.9736	-9.0332	-3.2410	54.8987	-164.5422	43.8500	11	-247	229	100853	0.39 
108.803	-1.2280	0.0479	1.9121	-3.7842	34.2407	-13.5498	-6.3940	57.5464	-170.5847	43.8500	27	-245	242	100853	0.39 
108.856	-1.1763	0.0562	1.8521	-3.7842	13.2446	-1.3428	-8.7177	57.9968	-175.2045	43.8600	42	-243	244	100853	0.39 
108.935	-1.2017	0.0181	1.9014	-4.6387	8.5449	0.8545	-9.4702	57.5354	-178.2312	43.8600	47	-242	245	100853	0.39 
108.988	-1.1782	0.0098	1.8525	-3.1128	1.9531	2.8076	-9.9152	56.3544	179.2584	43.8700	51	-241	246	100853	0.39 
109.188	-1.1738	0.0044	1.8740	-1.3428	-0.9766	-0.4883	-9.9371	55.0525	177.1765	43.8500	48	-241	248	100852	0.39 
109.304	-1.1777	0.0029	1.8667	-1.5259	-1.2207	0.3052	-9.8547	53.6133	175.2264	43.8600	48	-241	241	100852	0.39 
109.636	-1.1836	0.0112	1.8882	-2.7466	-3.4790	-0.1221	-9.8218	52.1960	173.3588	43.8600	50	-242	245	100852	0.39 
109.636	-1.1597	-0.0112	1.8774	-0.9155	-5.3711	-0.4883	-9.7119	50.5646	171.5350	43.8600	50	-240	241	100852	0.39 
109.721	-1.1626	-0.0083	1.8560	0.7324	-3.4790	0.0610	-9.3878	49.0814	169.9091	43.8700	50	-237	241	100852	0.39 
109.975	-1.1489	0.0098	1.8633	0.0000	-2.6245	1.0986	-8.8989	47.8180	168.5193	43.8700	45	-243	241	100852	0.39 
109.990	-1.1484	0.0088	1.8691	0.0000	-1.5869	-0.3052	-8.5254	46.6644	167.1899	43.8700	44	-241	241	100853	0.39 
109.990	-1.1582	0.0005	1.8706	-0.4883	0.3662	-1.2207	-8.2837	45.6866	165.7892	43.8700	48	-242	241	100853	0.39 
109.990	-1.1563	0.0000	1.8599	-1.0376	-1.0986	0.0000	-8.0475	44.8242	164.5203	43.8800	46	-238	238	100852	0.39 
110.037	-1.1450	0.0024	1.8628	-1.2817	0.0000	-0.7935	-7.8223	43.9893	163.3722	43.8800	48	-243	243	100853	0.39 
110.206	-1.1777	-0.0020	1.8818	-1.3428	-0.7935	-1.2207	-7.7563	43.2751	162.0868	43.8800	48	-240	241	100852	0.39 
110.206	-1.1431	-0.0098	1.8604	-1.3428	-0.4272	-1.3428	-7.6355	42.4402	160.9442	43.8900	46	-241	238	100853	0.39 
110.391	-1.1450	-0.0127	1.8662	-1.9531	-0.8545	-1.2817	-7.5366	41.6492	159.8566	43.9000	49	-239	240	100852	0.39 
110.460	-1.1538	-0.0103	1.8647	-1.8921	0.3052	-1.4038	-7.5421	40.9790	158.7195	43.9100	49	-241	242	100853	0.39 
110.592	-1.1611	-0.0156	1.8779	-1.7090	-4.8218	-0.3662	-7.3883	40.2429	157.8406	43.9100	47	-239	240	100852	0.39 
110.661	-1.1416	-0.0181	1.8696	-2.0752	-4.2114	-1.2817	-7.2290	39.2816	157.0715	43.9200	47	-237	238	100852	0.39 
110.823	-1.1377	-0.0327	1.8721	-2.5024	-4.7607	-1.2207	-7.1301	38.3148	156.3190	43.9100	46	-234	237	100852	0.39 
110.823	-1.1509	-0.0396	1.8931	-1.1597	-6.1646	-3.9063	-7.1686	37.4194	155.3741	43.9300	45	-235	234	100852	0.39 
110.977	-1.1494	-0.0342	1.8867	-1.4038	-11.4746	-0.3662	-6.9708	36.0626	154.7040	43.9400	43	-235	234	100852	0.39 
111.262	-1.1084	-0.0376	1.8975	-0.9766	-21.3013	-1.5869	-6.7181	34.1235	154.2645	43.9500	39	-234	231	100852	0.39 
111.378	-1.0850	-0.0386	1.9043	-2.1973	-29.4800	-5.0659	-6.5369	31.3605	153.8690	43.9400	33	-232	228	100852	0.39 
111.679	-1.0054	-0.0107	1.8818	-3.6621	-43.4570	-6.7139	-6.6742	27.5262	153.2922	43.9400	25	-231	221	100851	0.39 
111.794	-0.9824	-0.0381	1.9468	-0.2441	-64.5752	-11.5356	-6.6687	22.3956	153.0835	43.9400	9	-229	213	100852	0.39 
111.826	-0.8257	-0.0083	1.8008	-0.6714	-89.1113	1.6479	-6.1743	14.7931	153.7921	43.9600	-10	-224	203	100852	0.39 
111.826	-0.6714	-0.0088	1.7632	-3.9063	-64.8193	5.0049	-6.1469	7.9761	155.5060	43.9500	-38	-224	195	100852	0.39 
111.826	-0.5439	-0.1304	1.6553	-5.1880	-79.2847	6.0425	-6.3776	1.3458	158.1866	43.9400	-68	-221	188	100851	0.39 
112.196	-0.3740	-0.0420	1.6016	-3.4790	-75.0732	-3.6011	-6.7896	-5.1965	160.5048	43.9600	-95	-223	187	100852	0.39 
112.311	-0.1890	-0.0845	1.5239	-2.1362	-70.4346	9.5215	-7.4323	-11.6071	164.0039	43.9600	-124	-216	188	100852	0.39 
112.460	-0.1035	-0.0703	1.3975	-3.8452	-59.4482	-5.8594	-7.8333	-16.7267	167.4866	43.9400	-149	-216	193	100852	0.39 
112.462	-0.0605	-0.0693	1.2920	-2.4414	-44.9219	4.9438	-8.4320	-20.4016	171.1945	43.9400	-171	-218	195	100853	0.39 
112.463	0.0811	-0.0981	1.2656	2.0752	-31.0059	6.8359	-9.3329	-22.4561	175.3693	43.9300	-189	-214	205	100853	0.39 
112.512	0.3574	-0.2549	1.1123	4.1504	-46.3257	-3.0518	-10.0909	-24.0985	179.2035	43.9500	-201	-216	210	100853	0.39 
112.627	0.3569	-0.2236	1.1309	4.0283	-58.2275	15.3198	-9.9756	-24.0601	-177.9071	43.9300	-205	-219	211	100853	0.39 
112.797	0.1567	-0.0659	1.2124	2.9907	-27.0996	-1.8311	-9.7064	-22.8076	-175.7758	43.9400	-209	-217	216	100853	0.39 
112.866	-0.2031	-0.0493	1.3477	5.3101	-14.1602	0.5493	-9.8108	-21.2805	-173.2214	43.9300	-210	-220	217	100853	0.39 
112.866	-0.0864	-0.0562	1.2500	4.2725	9.0942	-11.7188	-9.1351	-20.7147	-171.6669	43.9400	-214	-221	214	100853	0.39 
112.866	-0.0391	-0.0781	1.2314	1.6479	-4.0283	1.1597	-8.6847	-19.1986	-170.3046	43.9300	-205	-224	220	100853	0.39 
112.982	-0.0737	-0.0347	1.2612	0.4272	-1.2817	-2.7466	-8.4869	-18.0835	-168.7280	43.9300	-206	-222	216	100853	0.39 
113.029	-0.0532	-0.0625	1.2236	-0.6714	-5.5542	-1.6479	-8.4485	-17.1881	-167.0636	43.9400	-205	-225	223	100853	0.39 
113.082	-0.0498	-0.0313	1.2339	0.1221	-0.6104	-1.9531	-8.3331	-16.2103	-165.5859	43.9300	-209	-219	223	100853	0.39 
113.395	-0.0747	-0.0327	1.2437	-0.4883	0.0000	-0.6714	-8.1903	-15.1337	-164.1028	43.9500	-208	-224	223	100853	0.39 
113.457	-0.0610	-0.0449	1.2329	0.0610	-2.2583	-0.7935	-8.0365	-14.1724	-162.6581	43.9200	-206	-223	224	100853	0.39 
113.473	-0.0605	-0.0410	1.2314	-0.1221	-1.7090	-0.0610	-7.8827	-13.3154	-161.2683	43.9300	-206	-225	221	100853	0.39 
113.660	-0.0718	-0.0439	1.2324	-0.2441	-1.7700	-1.1597	-7.7234	-12.5024	-159.9994	43.9200	-205	-226	223	100853	0.39 
113.801	-0.0557	-0.0371	1.2246	-0.5493	-0.7935	0.0610	-7.5861	-11.6730	-158.7909	43.9400	-209	-224	226	100853	0.39 
113.863	-0.0649	-0.0303	1.2471	0.4272	-1.6479	-0.4272	-7.3773	-10.7996	-157.6813	43.9500	-206	-225	221	100853	0.39 
113.863	-0.0698	-0.0322	1.2217	-0.3052	-1.4038	0.2441	-7.1741	-10.1514	-156.5771	43.9600	-207	-223	228	100853	0.39 
114.035	-0.0557	-0.0347	1.2026	-0.2441	0.7935	-0.4883	-7.0093	-9.3658	-155.4565	43.9500	-210	-225	224	100853	0.39 
114.254	-0.0459	-0.0381	1.2515	-0.7935	-0.5493	1.2207	-6.8390	-8.3826	-154.5062	43.9400	-208	-225	220	100853	0.39 
115.738	-0.0625	-0.0366	1.2310	-0.2441	-0.5493	0.4883	-6.6467	-7.7783	-153.5999	43.9400	-208	-229	225	100853	0.39 
116.035	-0.0493	-0.0220	1.2280	-0.1221	-0.7935	-0.7935	-6.4655	-7.2125	-152.6825	43.9400	-205	-226	228	100852	0.39 
116.160	-0.0508	-0.0327	1.2007	-0.1831	-1.1597	1.0986	-6.2512	-6.7126	-151.8201	43.9400	-210	-226	225	100852	0.39 
116.160	-0.0625	-0.0352	1.2227	-1.0986	6.8970	10.2539	-6.0425	-5.6964	-150.9741	43.9700	-205	-225	225	100852	0.39 
116.160	-0.2192	-0.0132	1.2969	-3.7842	7.9346	-4.3945	-6.0095	-4.4330	-150.2161	43.9600	-210	-225	222	100852	0.39 
116.160	-0.0244	-0.0796	1.0527	1.8921	-2.3804	13.3667	-6.0095	-4.3890	-149.6832	43.9600	-204	-228	223	100852	0.39 
116.160	-1.1216	-0.0234	1.9219	-4.4556	53.1006	-2.8076	-7.3059	54.3494	-165.8661	43.9700	12	-234	219	100853	0.39 
116.363	-1.1689	-0.0522	1.8569	-3.4180	31.6162	-4.1504	-9.6405	56.7389	-170.8923	43.9700	31	-235	223	100853	0.39 
116.363	-1.1694	0.0142	1.8784	-3.5400	19.5923	-3.4790	-11.8323	57.5793	-175.8362	43.9700	42	-234	230	100853	0.39 
116.566	-1.1826	0.0039	1.8691	-1.2817	7.5684	4.0894	-12.4146	57.3761	-178.8519	43.9800	48	-233	233	100853	0.39 
116.582	-1.1602	-0.0361	1.8716	-2.3804	0.6104	3.7231	-12.0300	56.3544	179.2529	43.9700	51	-233	237	100853	0.39 
116.582	-1.1606	-0.0444	1.8730	-1.7700	-3.5400	1.5869	-11.7719	54.7284	177.3413	43.9700	54	-237	235	100853	0.39 
116.645	-1.1436	-0.0430	1.8774	0.0000	-2.1973	0.0000	-11.5631	53.0804	175.3912	43.9700	52	-234	233	100853	0.39 
116.770	-1.1440	-0.0308	1.8560	0.0000	-2.8076	0.0000	-11.2610	51.4764	173.5071	43.9800	51	-233	233	100853	0.39 
117.238	-1.1304	-0.0342	1.8677	-0.9155	-1.2817	0.6714	-10.9644	50.1306	171.7163	44.0000	48	-236	233	100853	0.39 
117.254	-1.1274	-0.0249	1.8633	-0.5493	-2.5635	0.7324	-10.5908	48.8782	170.2057	43.9900	50	-236	232	100853	0.39 
117.254	-1.1421	-0.0259	1.8662	-0.8545	-2.8076	1.2207	-10.1733	47.6752	168.8324	44.0100	49	-235	234	100853	0.39 
117.254	-1.1182	-0.0293	1.8711	-1.0986	-1.8921	0.1831	-9.8273	46.4392	167.5085	44.0000	48	-234	239	100853	0.39 
117.254	-1.1421	-0.0376	1.8721	-1.5869	-2.5635	0.9155	-9.5471	45.3406	166.2506	44.0000	46	-234	231	100853	0.39 
117.348	-1.1226	-0.0317	1.8604	-2.0752	-4.1504	1.5869	-9.2230	44.2035	165.1245	44.0000	45	-232	235	100853	0.39 
117.645	-1.1157	-0.0405	1.8638	-2.1973	-3.2349	-0.7935	-9.0472	43.0389	164.0643	44.0300	45	-234	227	100853	0.39 
117.754	-1.1196	-0.0479	1.8696	-0.7324	-4.3335	-0.0610	-8.8110	41.9458	162.9602	44.0300	42	-235	230	100853	0.39 
117.754	-1.1108	-0.0396	1.8750	-0.7324	-3.2349	1.0376	-8.4705	40.9351	162.0483	44.0300	41	-232	231	100853	0.39 
117.816	-1.1152	-0.0488	1.8887	-0.2441	-4.0283	0.2441	-8.1024	39.9628	161.2903	44.0300	39	-235	230	100853	0.39 
117.926	-1.1313	-0.0664	1.9150	0.7324	-9.3384	-0.9766	-7.7563	38.8202	160.4169	44.0400	39	-235	231	100853	0.39 
117.990	-1.1191	-0.0527	1.8931	2.5635	-25.4517	-4.2114	-7.3334	36.4911	159.3951	44.0300	37	-231	226	100853	0.39 
118.101	-1.1743	-0.0083	1.9805	-2.0752	-51.2695	-4.1504	-6.9708	32.5745	158.6426	44.0500	27	-233	225	100853	0.39 
118.211	-0.9565	-0.0200	1.8472	-6.8359	-98.8770	6.4087	-6.4270	25.0928	159.3182	44.0500	9	-230	209	100853	0.39 
118.382	-0.8022	-0.0059	1.7485	-5.6152	-80.5054	-7.0801	-6.6138	16.3037	160.1971	44.0500	-19	-228	197	100852	0.39 
118.601	-0.6274	-0.1016	1.8042	-10.3760	-72.4487	-4.8828	-7.3334	9.6460	160.6805	44.0500	-44	-223	190	100852	0.39 
118.695	-0.5010	-0.1260	1.7061	-0.1221	-90.8203	-5.4321	-7.7179	1.8896	162.2845	44.0500	-76	-220	184	100852	0.39 
118.945	-0.3315	-0.1162	1.5171	-2.5635	-85.7544	11.4746	-7.5861	-6.0645	165.0641	44.0400	-104	-217	186	100851	0.39 
118.961	-0.1899	-0.1284	1.4907	9.9487	-75.9888	-15.5640	-8.2507	-12.5079	168.7830	44.0400	-140	-220	186	100851	0.39 
118.961	-0.0757	-0.0884	1.2886	11.5967	-62.8052	-8.1787	-7.3663	-18.4021	170.7550	44.0500	-161	-221	195	100851	0.39 
118.961	-0.1050	0.0264	1.1899	3.8452	-39.9170	-5.0049	-6.8719	-22.2968	173.2764	44.0600	-181	-224	204	100851	0.39 
118.961	-0.2852	-0.0405	1.3643	-2.2583	-11.9629	6.3477	-6.9763	-23.3405	176.4844	44.0700	-192	-224	216	100851	0.40 
119.117	-0.2661	-0.0605	1.2588	2.8687	0.9155	2.1973	-7.6410	-24.4446	-179.3463	44.0600	-203	-223	213	100851	0.40 
119.164	-0.2397	0.0200	1.1929	0.6714	3.9673	-19.4092	-7.8552	-25.2301	-176.7096	44.0600	-208	-224	221	100851	0.39 
119.304	0.1309	-0.0244	1.0747	0.7324	-8.6670	-0.5493	-7.5641	-24.9005	-175.2045	44.0600	-210	-227	219	100851	0.39 
119.367	-0.0688	0.0034	1.1304	3.9673	7.2632	-4.5166	-7.2784	-23.1372	-173.5071	44.0400	-210	-229	224	100851	0.39 
119.382	-0.0684	-0.0063	1.2588	1.4648	-0.0610	-1.0376	-6.9543	-20.8356	-171.7438	44.0500	-207	-228	226	100851	0.39 
119.539	-0.0527	0.0195	1.2241	-0.4272	0.0610	-1.2207	-6.7731	-19.4458	-170.1727	44.0500	-205	-232	223	100851	0.39 
119.617	-0.0444	-0.0181	1.2065	-1.5259	0.7324	-0.4272	-6.9598	-18.1604	-168.2666	44.0500	-206	-235	226	100851	0.39 
119.757	-0.0522	-0.0181	1.1826	-0.8545	0.1831	0.9155	-6.9543	-16.8970	-166.6241	44.0800	-201	-229	227	100851	0.39 
119.773	-0.0615	-0.0156	1.2144	-0.1221	2.1362	0.9155	-6.9214	-15.4468	-164.9213	44.0500	-203	-227	224	100852	0.39 
119.961	-0.0703	-0.0244	1.2324	-0.0610	2.6245	0.6714	-6.8225	-14.0955	-163.4106	44.0500	-205	-230	223	100852	0.39 
120.039	-0.0308	-0.0186	1.1997	-0.1831	0.0610	2.0142	-6.6522	-13.0243	-161.9495	44.0500	-202	-227	222	100852	0.39 
120.523	-0.0537	-0.0259	1.2104	-0.3052	-0.4272	-1.3428	-6.5753	-11.9586	-160.5762	44.0600	-205	-227	220	100852	0.39 
120.633	-0.0571	-0.0239	1.2319	0.1831	1.4648	-0.4272	-6.3776	-10.9039	-159.4446	44.0500	-202	-228	221	100852	0.39 
120.914	-0.0449	-0.0190	1.2500	0.3052	-0.3662	2.9297	-6.1523	-9.8877	-158.3295	44.0600	-205	-232	224	100852	0.39 
121.244	-0.0474	-0.0337	1.2070	-0.6104	-2.9907	1.7090	-6.0480	-9.3384	-156.9617	44.0600	-206	-228	224	100852	0.39 
121.260	-0.0542	-0.0181	1.2241	-0.0610	1.3428	-0.1831	-5.8777	-8.5968	-155.9454	44.0500	-205	-229	224	100852	0.39 
121.260	-0.0522	-0.0215	1.2651	-1.4038	-0.3662	0.7324	-5.7678	-7.7893	-154.9347	44.0500	-208	-230	223	100852	0.39 
121.260	-0.1147	0.0039	1.1890	-1.2817	0.1831	1.3428	-5.5920	-7.2235	-154.3964	44.0400	-206	-229	223	100851	0.39 
121.260	-0.0688	-0.0645	1.2407	0.3052	-0.9155	7.7515	-5.4932	-6.8610	-153.2263	44.0700	-202	-228	223	100851	0.39 
121.369	0.3774	-0.0547	0.8179	-0.2441	-22.7051	8.7280	-5.5151	-8.2343	-150.7709	44.0700	-211	-226	224	100851	0.39 
121.651	-0.0776	-0.1958	1.2002	5.8594	50.1709	-15.8081	-5.0043	-4.1638	-150.3534	44.0500	-209	-226	223	100851	0.39 
121.682	-0.0884	0.0093	1.2783	6.2866	70.3125	-10.6812	-3.7518	1.8182	-151.4630	44.0600	-190	-234	216	100852	0.39 
121.682	-0.0078	0.1279	1.4390	0.9155	75.0122	28.9307	-3.0762	8.8715	-151.1884	44.0600	-166	-231	207	100851	0.39 
121.760	-0.0601	-0.2095	1.5957	4.7607	91.4917	-4.0283	-2.7631	16.0126	-149.3097	44.0600	-151	-229	200	100851	0.39 
121.885	-0.3794	0.0522	1.6372	9.0942	82.5195	6.6528	-2.2522	23.3295	-151.2762	44.0800	-122	-234	197	100851	0.39 
121.885	-0.5425	-0.0400	1.7646	4.3335	67.6880	-7.6904	-1.9061	29.7839	-152.6495	44.0600	-96	-234	197	100851	0.39 
121.885	-0.6270	0.0020	1.7329	1.8921	68.5425	-3.9673	-2.3950	35.4803	-155.4071	44.0600	-70	-236	198	100851	0.40 
121.963	-0.7813	0.0029	1.8564	2.6245	62.1948	-1.9531	-2.6532	41.0339	-158.0383	44.0700	-47	-238	205	100851	0.40 
122.041	-0.8311	0.0171	1.8203	-0.4272	53.1006	-4.5776	-3.1366	45.3900	-160.6696	44.0800	-25	-241	208	100851	0.40 
122.104	-0.9453	-0.0024	1.8906	-2.7466	51.2085	-5.6152	-4.5428	49.2902	-164.4324	44.0900	-5	-242	213	100851	0.39 
122.213	-1.0259	0.0283	1.8843	-1.2817	44.6777	-12.6953	-6.8555	52.5696	-169.2773	44.0900	13	-241	221	100851	0.39 
122.448	-1.1860	0.0454	1.9160	-3.1128	28.9307	-10.5591	-9.2670	54.7504	-174.4684	44.0900	34	-234	229	100851	0.40 
122.510	-1.1528	-0.0034	1.9072	-4.0894	11.2915	-1.5869	-10.6348	55.0470	-178.3740	44.0900	40	-238	237	100851	0.39 
122.651	-1.1343	0.0000	1.8901	-5.5542	5.1270	-0.3662	-11.5961	54.2065	178.7640	44.0900	45	-236	233	100851	0.39 
122.651	-1.1226	-0.0303	1.8784	-3.4180	0.0000	0.0610	-11.7004	53.0200	176.8414	44.0800	45	-234	234	100852	0.39 
122.869	-1.1157	-0.0127	1.8862	-2.1362	-0.8545	0.9155	-11.7004	51.5259	174.8309	44.0900	47	-234	233	100852	0.39 
123.104	-1.1099	-0.0298	1.8760	-2.8687	-3.9063	0.8545	-11.4917	49.9713	173.1720	44.1000	46	-231	231	100852	0.39 
123.120	-1.0977	-0.0337	1.8823	-1.7700	-4.0283	-0.3052	-11.3324	48.4552	171.5131	44.0900	44	-232	231	100852	0.39 
123.120	-1.0859	-0.0361	1.8628	-1.2817	-6.1646	0.8545	-11.0193	46.8622	170.0739	44.0900	48	-231	233	100852	0.39 
123.198	-1.0928	-0.0195	1.8735	-2.1362	-8.0566	-0.9155	-10.6458	45.2582	168.7555	44.1100	41	-231	228	100852	0.39 
123.292	-1.0728	-0.0391	1.8867	-1.0376	-7.2632	-1.4038	-10.2777	43.6212	167.6129	44.1100	39	-232	227	100852	0.39 
123.448	-1.0601	-0.0459	1.8691	0.1221	-7.2632	-1.5259	-9.9097	41.9513	166.4044	44.1200	38	-229	223	100852	0.39 
123.463	-1.0298	-0.0493	1.8940	0.6104	-5.7983	-0.2441	-9.4922	40.4791	165.2124	44.1100	37	-233	225	100852	0.39 
123.604	-1.0669	-0.0435	1.8984	0.9766	-13.0005	-6.8359	-9.2780	38.8257	164.0094	44.1200	36	-230	222	100852	0.39 
123.698	-1.0771	-0.0630	1.9277	-1.5869	-32.7148	-4.2725	-9.0363	36.0297	162.8668	44.1200	31	-228	218	100852	0.39 
123.854	-1.0513	-0.0005	1.9448	0.1221	-51.8188	-12.3901	-8.8879	31.4429	161.6748	44.1400	23	-225	210	100852	0.39 
124.135	-0.8896	0.0347	1.8032	-1.8921	-69.6411	3.1738	-8.0695	24.5654	161.5759	44.1400	5	-226	206	100852	0.39 
124.135	-0.7612	0.0054	1.8667	-1.8921	-75.0122	-3.7842	-7.6300	18.0560	162.6141	44.1300	-19	-222	198	100852	0.39 
124.495	-0.6416	-0.0649	1.7681	-1.4648	-84.9609	4.1504	-7.2180	10.6128	164.3719	44.1400	-45	-220	189	100852	0.39 
124.495	-0.4619	-0.0542	1.6631	0.6714	-83.0688	6.2256	-6.7676	2.9004	166.6132	44.1500	-73	-222	183	100852	0.39 
124.495	-0.3447	-0.0142	1.6011	-2.1973	-87.5244	-1.8311	-6.8060	-4.3890	169.3378	44.1400	-107	-221	187	100852	0.39 
124.667	-0.1367	-0.1143	1.4858	8.7891	-66.3452	-9.9487	-6.8335	-11.0962	172.3206	44.1500	-137	-217	190	100851	0.39 
124.667	0.0117	-0.0313	1.3208	4.1504	-57.4341	-3.9673	-6.3116	-16.4850	174.4464	44.1400	-159	-220	198	100851	0.39 
124.667	0.1162	0.0127	1.1489	5.9814	-53.2227	5.1270	-5.9766	-20.2753	176.8469	44.1500	-179	-225	203	100851	0.39 
124.729	0.3081	-0.0547	1.0728	7.4463	-44.0063	0.0000	-6.2622	-23.3130	-179.5715	44.1600	-194	-227	212	100851	0.39 
124.838	0.4136	-0.1030	0.9395	8.8501	-39.3677	-9.0332	-6.4160	-25.6091	-176.4954	44.1700	-205	-224	219	100851	0.39 
125.057	-0.0117	0.0361	1.2114	7.8125	-23.0103	-25.5127	-5.9106	-24.5819	-174.7980	44.1600	-210	-228	224	100851	0.39 
125.057	-0.0376	-0.0405	1.0337	1.4038	4.2114	-15.3809	-5.2405	-23.8348	-173.8641	44.1600	-207	-231	227	100851	0.39 
125.245	-0.1060	0.0747	1.3296	-0.2441	15.3198	4.4556	-4.4659	-20.5829	-173.0347	44.1700	-202	-236	229	100851	0.39 
125.245	-0.0400	-0.0015	1.1890	-1.2207	6.0425	2.3804	-4.6198	-18.9240	-171.0571	44.1600	-201	-232	222	100851	0.39 
125.401	-0.0605	-0.0112	1.2153	-1.7090	-5.5542	2.3193	-4.7955	-17.4463	-169.1785	44.1600	-200	-235	225	100851	0.39 
125.479	-0.0176	0.0288	1.1782	-1.0376	-1.8311	0.9155	-4.8120	-16.7432	-167.4811	44.1600	-204	-235	228	100851	0.39 
125.479	-0.0581	0.0317	1.1982	-0.4272	1.3428	1.9531	-4.8615	-15.5786	-165.6793	44.1700	-203	-232	227	100852	0.39 
125.635	-0.0649	0.0015	1.2202	-0.7324	0.1831	-0.0610	-4.8010	-14.3262	-164.1907	44.1600	-204	-233	226	100852	0.39 
125.885	-0.0327	-0.0054	1.1904	-0.4272	-1.8921	0.2441	-4.7516	-13.4692	-162.8943	44.1700	-201	-235	222	100852	0.39 
125.948	-0.0601	0.0249	1.2056	0.0000	-1.7090	0.8545	-4.6198	-12.6343	-161.5924	44.1800	-204	-235	223	100852	0.39 
126.092	-0.0444	0.0103	1.1924	-0.1221	-0.4272	-0.9766	-4.4934	-11.8597	-160.3125	44.1600	-203	-233	222	100852	0.39 
126.092	-0.0513	0.0244	1.1963	-0.1831	0.0000	-0.0610	-4.3176	-11.0687	-159.3622	44.1800	-202	-229	223	100852	0.39 
126.389	-0.0552	0.0313	1.1938	-0.0610	-0.2441	-1.7700	-4.1528	-10.3436	-158.3734	44.1700	-202	-233	224	100852	0.39 
126.404	-0.0425	0.0146	1.1841	-0.4272	-3.9673	-0.1831	-4.0045	-9.7614	-157.4011	44.1800	-200	-233	227	100852	0.39 
126.670	-0.0508	0.0220	1.1997	-0.5493	-1.2207	1.7090	-3.9166	-9.1681	-156.3849	44.1800	-201	-234	227	100852	0.39 
126.686	-0.0713	-0.0088	1.1685	-0.9155	-3.2349	2.7466	-3.8068	-8.7286	-155.2917	44.1700	-207	-233	227	100852	0.39 
126.748	-0.0195	-0.0630	1.1787	-0.2441	-7.4463	7.6904	-3.7024	-8.1079	-154.2426	44.1800	-207	-233	223	100852	0.39 
126.842	0.0508	0.1797	1.1030	0.3052	-0.4272	6.8359	-3.1421	-7.7948	-153.5999	44.1800	-205	-230	226	100852	0.39 
126.842	0.2305	0.0728	0.8301	0.9155	15.4419	-8.0566	-3.3179	-7.7673	-153.1055	44.1800	-208	-232	229	100852	0.39 
126.889	-0.0244	-0.0430	1.4736	4.5166	74.0967	-23.0713	-2.8070	-1.2744	-153.5175	44.1700	-202	-234	220	100852	0.39 
126.889	-0.0024	0.0537	1.0327	5.0049	66.8335	4.6997	-1.9061	3.6694	-153.8800	44.1900	-173	-235	215	100852	0.39 
127.061	-0.0801	0.1030	1.5317	-5.5542	68.4204	32.4097	-1.5161	11.7059	-152.5067	44.1800	-152	-234	208	100852	0.39 
127.061	-0.2290	0.0112	1.6660	2.8687	83.7402	-6.0425	-1.4941	18.5175	-151.2488	44.1600	-134	-232	199	100852	0.39 
127.498	-0.3999	0.0327	1.6431	-3.8452	77.0874	7.0190	-1.5491	25.2246	-152.1991	44.1600	-109	-234	195	100852	0.39 
127.498	-0.5186	-0.0317	1.7476	-5.1270	78.3081	4.7607	-2.0544	32.2284	-153.3087	44.1700	-80	-232	194	100853	0.39 
127.498	-0.6421	0.0508	1.7686	-7.5684	62.4390	0.3052	-3.3563	38.3148	-155.5884	44.1700	-57	-231	194	100853	0.39 
127.748	-0.7725	-0.0928	1.8428	-2.8076	65.1245	-0.0610	-3.9606	43.7640	-157.6154	44.1700	-33	-231	198	100853	0.39 
127.842	-0.9194	-0.0513	1.8564	-6.1035	71.7163	-7.4463	-5.8667	49.1089	-161.6968	44.1700	-9	-231	203	100853	0.39 
128.014	-1.1152	0.0093	1.9536	-5.1270	63.4766	-1.1597	-8.7122	54.5801	-167.0361	44.1800	16	-230	211	100853	0.39 
128.295	-1.1675	-0.0513	1.8584	-3.7842	30.1514	2.1362	-10.4974	57.4585	-171.3483	44.1700	35	-228	225	100853	0.39 
128.483	-1.2173	-0.0400	1.9131	-2.8076	27.4048	-2.2583	-12.4530	58.8373	-175.8856	44.2000	50	-230	228	100853	0.39 
128.483	-1.2334	-0.0610	1.8774	-1.2207	13.9771	-1.6479	-13.7219	59.1010	-179.8407	44.2000	60	-228	232	100854	0.39 
128.498	-1.2017	-0.0400	1.8804	-1.0376	-2.4414	1.5259	-14.1559	58.1506	177.1820	44.2000	60	-223	236	100853	0.39 
128.498	-1.1841	-0.0630	1.8618	-0.9766	-5.6152	1.2817	-13.8373	56.3544	175.0836	44.2100	59	-226	235	100853	0.39 
128.498	-1.1592	-0.0649	1.8584	-0.1831	-6.8970	1.8921	-13.3154	54.3494	173.3368	44.2100	60	-229	234	100853	0.39 
128.686	-1.1362	-0.0498	1.8701	0.6714	-6.0425	0.1221	-12.7936	52.3718	171.6339	44.2300	57	-229	232	100853	0.39 
128.701	-1.1289	-0.0718	1.8677	0.0000	-4.6997	-1.0986	-12.2168	50.5261	170.1837	44.2200	57	-227	230	100853	0.39 
128.826	-1.1089	-0.0845	1.8765	2.0752	-5.3711	-2.8687	-11.9696	48.7738	168.3435	44.2000	54	-227	228	100853	0.39 
128.889	-1.1602	-0.0444	1.8848	1.5259	-12.8174	-1.0986	-11.2720	46.8127	166.8658	44.2200	49	-228	229	100853	0.39 
128.889	-1.1782	-0.0186	1.9189	1.0986	-30.8228	-4.3945	-10.6512	43.8080	165.5420	44.2300	46	-226	227	100853	0.39 
129.061	-1.0283	-0.0635	1.8926	0.4272	-42.3584	-8.6060	-10.2063	39.2157	164.5093	44.2200	36	-225	220	100853	0.39 
129.249	-0.9990	-0.0513	1.8984	3.7842	-58.7769	3.4180	-9.2340	33.6456	164.3225	44.2200	23	-224	211	100853	0.39 
129.296	-0.9224	-0.0327	1.9497	11.2915	-72.6318	-11.1694	-8.0420	26.7682	164.0149	44.2300	3	-223	205	100853	0.39 
129.296	-0.6890	-0.0195	1.5527	1.0986	-62.2559	-13.7329	-6.9598	18.6438	163.7402	44.2400	-20	-225	200	100853	0.39 
129.436	-0.5723	0.1118	1.8037	3.0518	-74.2798	-2.1362	-6.2128	12.1893	163.9655	44.2400	-41	-225	194	100853	0.39 
129.468	-0.4556	-0.0376	1.6973	2.9907	-74.5239	8.5449	-5.2295	5.2515	166.2946	44.2600	-66	-224	188	100853	0.39 
129.890	-0.3999	-0.0020	1.5913	4.4556	-82.5806	4.0283	-4.8065	-1.8127	168.7061	44.2300	-93	-226	187	100853	0.39 
129.890	-0.1724	-0.0962	1.5293	7.8735	-67.8711	4.8828	-4.5923	-8.6957	172.1887	44.2500	-127	-225	188	100852	0.39 
129.952	-0.1006	-0.0527	1.3315	5.7373	-60.4858	-9.0942	-4.2462	-14.2108	174.6606	44.2400	-153	-227	193	100852	0.39 
130.124	-0.1177	0.0269	1.2529	1.2817	-34.7290	-10.3149	-4.0540	-18.1604	176.6382	44.2300	-168	-228	204	100852	0.39 
130.218	-0.1572	-0.0078	1.3350	0.7935	-25.3906	10.3149	-4.0375	-19.8743	179.0552	44.2300	-180	-231	209	100852	0.39 
130.358	-0.2285	0.1416	1.3174	5.6152	5.0049	-2.1973	-3.6694	-20.8630	-178.5114	44.2400	-193	-232	210	100852	0.39 
130.436	-0.3350	0.0571	1.2505	1.9531	7.0801	8.4229	-3.7244	-21.3794	-175.5670	44.2400	-199	-233	221	100852	0.39 
130.640	-0.0996	-0.0078	1.2378	2.1362	-9.7046	-6.7139	-3.8672	-21.2970	-173.2379	44.2300	-204	-230	225	100853	0.39 
130.640	-0.0723	0.0249	1.0811	0.8545	20.7520	-3.1738	-3.1750	-20.4785	-172.2931	44.2300	-197	-232	229	100853	0.39 
130.952	0.0122	0.0342	1.1597	-0.4883	-8.1787	0.6104	-2.9883	-18.3087	-170.7935	44.2300	-197	-236	226	100853	0.39 
130.952	-0.0898	0.0610	1.2813	0.0000	0.7935	-2.7466	-3.0377	-16.8640	-169.2938	44.2300	-198	-235	228	100853	0.39 
131.000	-0.0537	0.0454	1.1929	-1.0376	-1.8311	0.0000	-3.0377	-16.0510	-167.8326	44.2100	-195	-237	228	100853	0.39 
131.094	-0.0332	0.0347	1.2007	0.0610	2.2583	-0.3052	-3.0487	-14.9854	-166.2836	44.2200	-197	-233	225	100853	0.39 
131.094	-0.0698	0.0474	1.2080	-0.3662	-0.6714	0.6714	-2.9388	-13.9252	-164.9432	44.2100	-200	-237	224	100853	0.39 
131.157	-0.0537	0.0342	1.2080	-0.3052	-0.3052	1.0986	-2.8674	-12.9529	-163.6304	44.2200	-193	-237	230	100853	0.39 
131.157	-0.0566	0.0298	1.1890	-0.2441	0.7935	1.0986	-2.8070	-12.0850	-162.3120	44.2400	-198	-234	228	100852	0.39 
131.407	-0.0371	0.0303	1.1997	-0.3662	-1.8311	-0.3662	-2.7191	-11.2665	-161.1145	44.2100	-202	-235	229	100852	0.39 
131.500	-0.0522	0.0371	1.2051	-0.4272	0.0000	0.5493	-2.6202	-10.5029	-160.0598	44.2100	-197	-234	225	100852	0.39 
131.578	-0.0479	0.0435	1.2056	0.0000	0.1831	-0.4883	-2.4719	-9.7339	-159.0546	44.2300	-199	-235	226	100852	0.39 
131.750	-0.0376	0.0396	1.1880	-0.0610	0.3662	-0.7324	-2.3126	-9.0253	-158.1152	44.2300	-200	-237	226	100851	0.39 
131.953	-0.0947	0.0562	1.2241	-0.4883	1.0376	0.9155	-2.1039	-8.0640	-157.5275	44.2400	-198	-236	225	100851	0.39 
131.953	0.0278	0.0996	1.1035	1.7090	-6.3477	2.1362	-1.7743	-7.4982	-156.6980	44.2200	-199	-237	225	100851	0.40 
132.000	-0.2256	0.0801	1.2207	4.6997	10.2539	3.6011	-1.4282	-6.0974	-155.6653	44.2400	-199	-239	226	100851	0.40 
132.141	0.2173	0.0400	0.9702	-0.7324	15.0757	-17.7002	-1.5985	-6.7126	-154.2590	44.2300	-203	-235	227	100850	0.40 
132.219	0.0376	0.0313	1.2231	1.0986	24.0479	-5.7373	-1.4722	-2.7576	-154.9072	44.2200	-190	-238	223	100851	0.40 
132.313	-0.0020	0.1021	1.1572	-0.3052	68.1763	-7.8125	-1.2305	1.5930	-155.0391	44.2300	-180	-236	219	100851	0.40 
132.375	-0.2852	0.1602	1.5039	-4.9438	69.5190	-1.0376	-1.1920	8.6078	-155.2863	44.2400	-159	-240	213	100851	0.39 
132.375	-0.6079	-0.0859	1.6538	-6.4087	71.5332	-7.2021	-1.2140	15.6226	-153.9734	44.2200	-136	-236	204	100851	0.39 
132.594	-0.5054	0.1250	1.6436	-2.0752	72.3877	-9.7656	-1.5216	22.3682	-154.8688	44.2300	-114	-238	196	100851	0.39 
132.907	-0.4502	-0.0220	1.6782	-4.3945	76.2329	-0.5493	-1.3513	29.3060	-155.0500	44.2400	-87	-236	198	100851	0.39 
132.907	-0.5757	0.0688	1.7930	-7.5073	71.0449	-2.1362	-2.3181	35.8264	-156.8188	44.2300	-63	-235	195	100852	0.39 
132.907	-0.7329	0.0088	1.7979	-2.9297	62.8052	-0.7935	-3.1201	41.0889	-159.0106	44.2200	-39	-233	199	100851	0.39 
132.954	-0.8618	-0.0088	1.8506	-3.1128	50.0488	-0.1221	-4.0485	45.4010	-161.9220	44.2300	-16	-234	200	100851	0.39 
132.985	-0.8994	-0.0381	1.8960	-5.2490	52.4292	-0.7324	-5.1855	49.0265	-164.8114	44.2200	0	-232	205	100851	0.39 
133.172	-1.0288	-0.0220	1.8311	-7.9956	47.7905	-8.6060	-7.7673	52.5476	-169.3927	44.2300	18	-234	215	100851	0.40 
133.266	-1.1514	-0.0371	1.9023	0.2441	33.6914	-7.1411	-10.3381	55.2228	-174.4849	44.2200	37	-229	223	100851	0.40 
133.500	-1.2007	-0.0103	1.8677	2.3193	19.2871	1.8921	-11.3708	56.0248	-178.6652	44.2600	47	-230	231	100851	0.40 
133.688	-1.1660	-0.0410	1.8608	-2.0752	4.6997	5.6152	-11.2939	55.8160	178.9618	44.2000	53	-230	235	100851	0.40 
133.985	-1.1416	-0.0117	1.8779	0.1831	1.5259	3.6621	-10.7391	54.7668	177.2919	44.2300	57	-232	233	100851	0.39 
133.985	-1.1382	-0.0088	1.9063	2.2583	-8.5449	3.1738	-9.9976	53.0365	175.6659	44.2000	57	-229	233	100851	0.40 
133.985	-1.0566	-0.0093	1.8418	2.5635	-9.6436	-0.4272	-9.2175	50.6195	174.0784	44.2300	52	-232	234	100851	0.39 
134.055	-1.0874	0.0034	1.8804	0.9766	-4.0894	-2.1362	-8.9044	48.7573	172.2766	44.2500	51	-233	229	100851	0.39 
134.414	-1.0947	0.0034	1.8887	-0.6714	-0.4272	-1.6479	-8.7231	47.2906	170.6122	44.2600	46	-232	231	100851	0.40 
134.414	-1.0845	-0.0093	1.8813	-0.1221	-2.0752	-0.3052	-8.4924	45.9613	169.1071	44.2400	47	-233	229	100851	0.40 
134.414	-1.0771	0.0000	1.8755	-0.7324	-1.4038	0.6104	-8.2123	44.7803	167.7228	44.2600	47	-235	232	100851	0.40 
134.508	-1.0796	-0.0063	1.8809	-0.6104	-0.7935	2.3193	-7.8223	43.7915	166.6516	44.2600	45	-233	231	100850	0.40 
134.508	-1.0664	0.0005	1.8848	-1.8921	0.0610	-0.3052	-7.4707	42.8302	165.6299	44.2700	47	-233	230	100850	0.40 
134.649	-1.0635	0.0024	1.8652	-5.6152	-0.3662	2.6855	-7.3334	41.9568	164.6741	44.2700	49	-231	227	100851	0.40 
134.742	-1.0874	-0.0479	1.8804	-5.5542	-1.5869	-7.3853	-7.8223	41.0559	163.3447	44.2800	43	-232	228	100851	0.40 
134.867	-1.0732	-0.0415	1.8501	-3.5400	-1.0986	-9.1553	-8.7671	40.0671	161.1365	44.2800	45	-228	228	100851	0.40 
135.055	-1.0859	-0.0459	1.8901	-2.0752	-2.5635	-1.7700	-9.0637	39.2432	159.5599	44.2700	48	-228	225	100851	0.39 
135.070	-1.0620	-0.0283	1.8687	1.0376	-1.9531	1.4648	-8.6847	38.4357	158.7195	44.2800	50	-227	225	100851	0.39 
135.180	-1.0649	-0.0249	1.8774	1.8311	-0.5493	1.0986	-8.0035	37.8094	158.2141	44.2900	47	-230	220	100851	0.39 
135.195	-1.0547	-0.0327	1.8774	-0.0610	-0.6104	0.4272	-7.4432	37.2711	157.6318	44.3000	45	-226	223	100851	0.39 
135.227	-1.0684	-0.0269	1.8706	0.5493	-2.1973	-0.8545	-7.1301	36.6998	156.8573	44.2900	46	-224	222	100851	0.39 
135.352	-1.0615	-0.0313	1.8647	-0.4883	0.0000	0.0000	-6.8170	36.1835	156.1542	44.2900	44	-224	223	100851	0.39 
135.430	-1.0566	-0.0269	1.8823	-0.7324	-0.4272	-0.3662	-6.5588	35.7385	155.5389	44.3100	47	-226	222	100851	0.39 
135.602	-1.0654	-0.0298	1.8789	-0.1221	-0.7935	0.7935	-6.2732	35.3156	154.9237	44.3200	42	-227	225	100852	0.39 
135.742	-1.0630	-0.0371	1.8862	-0.2441	-0.3052	0.2441	-5.9766	34.8981	154.4733	44.3200	44	-225	224	100852	0.39 
135.805	-1.0596	-0.0220	1.8750	-0.3052	-1.5259	0.6104	-5.6799	34.4366	154.0228	44.3100	46	-228	223	100852	0.39 
136.008	-1.0562	-0.0352	1.8760	-0.7935	-0.8545	0.7324	-5.3833	34.0631	153.6823	44.3200	44	-225	224	100851	0.39 
136.195	-1.0620	-0.0273	1.8774	-0.9155	-1.5869	0.6714	-5.1801	33.7061	153.2758	44.3400	42	-224	224	100851	0.39 
136.258	-1.0518	-0.0371	1.8672	-1.8921	-0.0610	-0.4883	-5.0647	33.3105	152.9022	44.3400	43	-230	225	100851	0.39 
136.414	-1.0566	-0.0317	1.8779	-1.4648	-1.4038	-1.0376	-5.0427	33.0634	152.4353	44.3400	44	-225	224	100851	0.39 
136.524	-1.0562	-0.0415	1.8770	-1.0376	-0.1221	1.2817	-4.9384	32.8052	152.0453	44.3400	46	-228	224	100851	0.40 
136.867	-1.0527	-0.0430	1.8838	-0.5493	-0.8545	0.0000	-4.7845	32.5031	151.7542	44.3600	43	-227	223	100851	0.39 
136.945	-1.0562	-0.0391	1.8765	0.1831	-1.0986	0.1221	-4.5923	32.1899	151.3916	44.3400	45	-225	222	100851	0.40 
137.127	-1.0454	-0.0405	1.8706	0.7935	-0.1221	1.0986	-4.3176	31.9208	151.1169	44.3500	44	-226	225	100850	0.40 
137.361	-1.0532	-0.0337	1.8784	0.6104	0.1221	0.4272	-4.0100	31.7725	150.9302	44.3600	41	-226	225	100851	0.40 
137.377	-1.0547	-0.0322	1.8677	-0.2441	-0.9155	1.6479	-3.7024	31.5802	150.7928	44.3500	42	-226	224	100850	0.40 
137.471	-1.0591	-0.0322	1.8857	0.2441	0.3052	0.3662	-3.5321	31.4484	150.5621	44.3800	44	-228	224	100850	0.40 
137.752	-1.0459	-0.0371	1.8740	-0.8545	-0.6714	0.3052	-3.3618	31.2177	150.3864	44.3700	43	-229	223	100851	0.40 
137.799	-1.0449	-0.0303	1.8779	-0.4272	-0.7324	0.3052	-3.2574	31.0529	150.1996	44.3500	42	-228	225	100850	0.40 
137.799	-1.0503	-0.0313	1.8638	0.6104	0.8545	-0.1831	-3.1036	30.9155	150.0293	44.3600	39	-230	226	100850	0.40 
137.799	-1.0513	-0.0371	1.8872	-0.1221	1.2817	0.3662	-2.9333	30.9320	149.9194	44.3800	42	-230	226	100850	0.40 
137.893	-1.0596	-0.0278	1.8770	-0.1221	0.1221	-0.1831	-2.8125	30.8661	149.7711	44.3800	44	-227	228	100850	0.40 
138.064	-1.0547	-0.0337	1.8687	-0.6104	-1.5259	0.0000	-2.7191	30.7507	149.5349	44.3800	44	-225	226	100851	0.40 
138.080	-1.0610	-0.0376	1.8774	-0.3052	-0.7935	-0.7935	-2.7081	30.6079	149.2767	44.3900	42	-227	225	100850	0.40 
138.080	-1.0547	-0.0317	1.8721	0.1831	-0.9155	-0.4272	-2.6422	30.4596	149.0350	44.3900	44	-227	222	100851	0.40 
138.158	-1.0537	-0.0308	1.8789	0.0000	-0.9155	0.8545	-2.5378	30.3552	148.9032	44.3900	43	-225	222	100851	0.40 
138.252	-1.0527	-0.0332	1.8813	-0.3052	-0.5493	-0.6104	-2.4664	30.2069	148.7604	44.4000	41	-228	220	100851	0.40 
138.252	-1.0532	-0.0278	1.8779	0.0000	-0.8545	-0.4883	-2.4500	30.0586	148.5516	44.3800	41	-227	225	100851	0.40 
138.424	-1.0488	-0.0391	1.8804	-0.5493	-0.9155	0.1221	-2.3730	29.9268	148.4692	44.4000	39	-229	221	100850	0.40 
138.518	-1.0571	-0.0303	1.8936	0.4883	-0.2441	-0.4883	-2.3126	29.8169	148.3704	44.4100	40	-230	220	100850	0.40 
138.689	-1.0376	-0.0303	1.8779	-0.1831	-0.9155	-0.6104	-2.2302	29.6521	148.2825	44.4000	40	-227	222	100850	0.40 
138.783	-1.0415	-0.0288	1.8853	0.2441	-0.3662	-0.7324	-2.2412	29.5972	148.0353	44.4000	46	-228	220	100851	0.40 
138.939	-1.0488	-0.0352	1.8789	0.0000	0.5493	-1.1597	-2.1973	29.5313	147.8705	44.4100	45	-227	221	100851	0.40 
138.939	-1.0459	-0.0278	1.8770	0.2441	-1.3428	-0.4272	-2.1039	29.4489	147.8101	44.4200	44	-229	220	100851	0.40 
139.221	-1.0439	-0.0269	1.8755	0.2441	-1.1597	-0.0610	-1.9995	29.3280	147.7441	44.4100	43	-228	226	100851	0.40 
139.314	-1.0439	-0.0269	1.8838	0.1831	-1.2207	0.3052	-1.9116	29.1962	147.6782	44.4000	42	-227	223	100850	0.40 
139.627	-1.0366	-0.0234	1.8784	0.0000	-1.3428	0.2441	-1.8182	29.0149	147.6398	44.4300	42	-230	222	100850	0.40 
139.924	-1.0376	-0.0254	1.8804	0.3662	-0.9155	-0.2441	-1.7139	28.9050	147.6617	44.4200	42	-228	221	100850	0.40 
140.080	-1.0371	-0.0244	1.8818	0.7935	-1.0986	0.2441	-1.5875	28.8062	147.6727	44.4200	42	-227	224	100850	0.40 
140.283	-1.0425	-0.0156	1.8843	0.4883	1.0376	1.3428	-1.4612	28.7897	147.6782	44.4400	40	-227	226	100849	0.40 
140.283	-1.0405	-0.0186	1.8784	0.2441	-1.2817	1.3428	-1.2854	28.6798	147.8046	44.4300	40	-230	224	100849	0.40 
140.676	-1.0278	-0.0215	1.8818	-0.0610	-2.0752	0.3662	-1.1755	28.5205	147.8870	44.4500	41	-232	226	100849	0.40 
140.682	-1.0293	-0.0176	1.8838	0.0000	-1.2817	0.1221	-1.1316	28.3667	147.8650	44.4500	42	-227	225	100849	0.40 
140.682	-1.0293	-0.0195	1.8843	-0.2441	-1.2817	0.7935	-1.0931	28.2458	147.8870	44.4300	40	-230	224	100849	0.40 
140.683	-1.0273	-0.0166	1.8770	-0.1831	-1.5259	0.6714	-1.0382	28.1250	147.9529	44.4400	38	-231	224	100849	0.40 
140.684	-1.0200	-0.0210	1.8794	-0.3662	-1.1597	0.3052	-1.0107	28.0481	148.0353	44.4400	37	-229	220	100849	0.40 
140.684	-1.0381	-0.0132	1.8901	0.1221	2.0752	0.9155	-0.9833	28.1140	148.0682	44.4400	38	-230	221	100849	0.40 
140.756	-1.0063	-0.0186	1.8872	0.1831	0.7935	0.7935	-0.9229	28.2294	148.1616	44.4700	35	-228	223	100849	0.40 
140.756	-1.0371	-0.0146	1.8809	-0.0610	-1.4648	0.1221	-0.8789	28.2678	148.2825	44.4600	36	-229	224	100849	0.40 
140.756	-1.0186	-0.0181	1.8833	-0.7324	-0.9155	-0.9766	-0.8954	28.1689	148.2770	44.4500	37	-229	221	100849	0.40 
140.756	-1.0229	-0.0137	1.8765	-0.4883	-1.5259	-0.7324	-0.9723	28.0096	148.2220	44.4700	37	-227	219	100849	0.40 
140.865	-1.0220	-0.0205	1.8857	-0.5493	-0.2441	0.0610	-1.0052	28.0096	148.2220	44.4700	38	-232	222	100850	0.40 
140.865	-1.0249	-0.0249	1.8794	-1.2817	-0.4883	0.0000	-1.0492	27.9822	148.2770	44.4700	38	-228	219	100850	0.40 
140.928	-1.0137	-0.0239	1.8784	-0.2441	0.7324	-0.9155	-1.1371	28.0316	148.1836	44.4500	36	-228	221	100850	0.40 
141.053	-1.0464	-0.0161	1.9009	0.1831	-1.1597	0.4272	-1.1371	28.1360	148.1177	44.4600	38	-228	222	100850	0.40 
141.147	-1.0112	-0.0166	1.8828	-0.3662	0.6714	0.7935	-1.0822	28.0975	148.2001	44.4700	38	-230	224	100850	0.40 
141.287	-1.0283	-0.0225	1.8848	0.0610	0.1221	0.3662	-1.0162	28.2129	148.2880	44.4800	41	-228	222	100850	0.40 
141.365	-1.0464	-0.0122	1.8955	0.5493	0.6714	1.5869	-0.9229	28.3173	148.3319	44.4700	38	-231	223	100849	0.40 
141.459	-1.0234	-0.0225	1.8716	0.1831	-0.1831	0.1221	-0.8405	28.2513	148.4857	44.4800	39	-230	223	100850	0.40 
141.506	-1.0356	-0.0166	1.8794	0.3662	-0.4883	-0.3662	-0.7910	28.2788	148.4253	44.4900	38	-229	221	100850	0.40 
141.693	-1.0298	-0.0112	1.8789	0.7324	0.6104	0.0610	-0.7306	28.3502	148.3704	44.5000	39	-230	220	100850	0.40 
141.787